Zeit (s) Messreihe #9	Spannung, Ch A (V) Messreihe #9	Spannung, Ch B (V) Messreihe #9
0,000	-1,000	-7,689E-4
0,050	-1,000	-0,002
0,100	-1,000	-6,993E-4
0,150	-1,000	-0,002
0,200	-1,000	-7,714E-4
0,250	-1,000	-0,002
0,300	-1,000	-6,652E-4
0,350	-1,000	-0,002
0,400	-1,000	-1,793E-4
0,450	-1,000	-0,002
0,500	-1,000	-6,810E-4
0,550	-1,000	-0,002
0,600	-1,000	-5,541E-4
0,650	-1,000	-0,002
0,700	-1,000	-4,430E-4
0,750	-1,000	-0,002
0,800	-1,000	-3,026E-4
0,850	-1,000	-0,002
0,900	-1,000	-6,005E-4
0,950	-1,000	-0,002
1,000	-1,000	-4,540E-4
1,050	-1,000	-0,001
1,100	-1,000	-6,725E-4
1,150	-1,000	-0,002
1,200	-1,000	-6,981E-4
1,250	-1,000	-0,002
1,300	-1,000	-5,333E-4
1,350	-1,000	-0,002
1,400	-1,000	-7,885E-4
1,450	-1,000	-0,002
1,500	-1,000	-5,065E-4
1,550	-1,000	-0,002
1,600	-1,000	-6,554E-4
1,650	-1,000	-0,002
1,700	-1,000	-7,201E-4
1,750	-1,000	-0,002
1,800	-1,000	-9,789E-4
1,850	-1,000	-0,001
1,900	-1,000	-4,259E-4
1,950	-1,000	-0,002
2,000	-1,000	-6,029E-4
2,050	-1,000	-0,002
2,100	-1,000	-5,736E-4
2,150	-1,000	-0,001
2,200	-1,000	-3,148E-4
2,250	-1,000	-0,002
2,300	-1,000	-7,628E-4
2,350	-1,000	-0,002
2,400	-1,000	-6,993E-4
2,450	-1,000	-0,001
2,500	-1,000	-6,456E-4
2,550	-1,000	-0,002
2,600	-1,000	-5,223E-4
2,650	-1,000	-0,002
2,700	-1,000	-4,857E-4
2,750	-1,000	-0,002
2,800	-1,000	-5,345E-4
2,850	-1,000	-0,002
2,900	-1,000	-8,300E-4
2,950	-1,000	-0,002
3,000	-1,000	-5,651E-4
3,050	-1,000	-0,002
3,100	-1,000	-5,016E-4
3,150	-1,000	-0,002
3,200	-1,000	-6,505E-4
3,250	-1,000	-0,002
3,300	-1,000	-5,638E-4
3,350	-1,000	-0,002
3,400	-1,000	-4,332E-4
3,450	-1,000	-0,002
3,500	-1,000	-7,115E-4
3,550	-1,000	-0,002
3,600	-1,000	-6,322E-4
3,650	-1,000	-0,002
3,700	-1,000	-4,650E-4
3,750	-1,000	-0,002
3,800	-1,000	-6,432E-4
3,850	-1,000	-0,001
3,900	-1,000	-6,603E-4
3,950	-1,000	-0,002
4,000	-1,000	-5,699E-4
4,050	-1,000	-0,002
4,100	-1,000	-4,283E-4
4,150	-1,000	-0,002
4,200	-1,000	-3,966E-4
4,250	-1,000	-0,002
4,300	-1,000	-3,868E-4
4,350	-1,000	-0,002
4,400	-1,000	-6,346E-4
4,450	-1,000	-0,002
4,500	-1,000	-8,458E-4
4,550	-1,000	-0,002
4,600	-1,000	-5,016E-4
4,650	-1,000	-0,001
4,700	-1,000	-7,286E-4
4,750	-1,000	-0,002
4,800	-1,000	-4,161E-4
4,850	-1,000	-0,002
4,900	-1,000	-6,066E-4
4,950	-1,000	-0,002
5,000	-1,000	-4,552E-4
5,050	-1,000	-0,002
5,100	-1,000	-1,891E-4
5,150	-1,000	-0,001
5,200	-1,000	-4,271E-4
5,250	-1,000	-0,002
5,300	-1,000	-6,908E-4
5,350	-1,000	-0,002
5,400	-1,000	-5,211E-4
5,450	-1,000	-0,002
5,500	-1,000	-6,310E-4
5,550	-1,000	-0,002
5,600	-1,000	-6,847E-4
5,650	-1,000	-0,002
5,700	-1,000	-4,564E-4
5,750	-1,000	-0,002
5,800	-1,000	-7,518E-4
5,850	-1,000	-0,002
5,900	-1,000	-4,052E-4
5,950	-1,000	-0,002
6,000	-1,000	-4,589E-4
6,050	-1,000	-0,002
6,100	-1,000	-3,380E-4
6,150	-1,000	-0,002
6,200	-1,000	-5,919E-4
6,250	-1,000	-0,001
6,300	-1,000	-4,027E-4
6,350	-1,000	-0,002
6,400	-1,000	-4,784E-4
6,450	-1,000	-0,002
6,500	-1,000	-4,406E-4
6,550	-1,000	-0,002
6,600	-1,000	-4,357E-4
6,650	-1,000	-0,001
6,700	-1,000	-4,479E-4
6,750	-1,000	-0,002
6,800	-1,000	-6,371E-4
6,850	-1,000	-0,002
6,900	-1,000	-3,832E-4
6,950	-1,000	-0,002
7,000	-1,000	-4,576E-4
7,050	-1,000	-0,002
7,100	-0,998	-3,624E-4
7,150	-0,997	-0,002
7,200	-0,997	-4,222E-4
7,250	-0,997	-0,001
7,300	-0,997	-3,710E-4
7,350	-0,995	-0,001
7,400	-0,993	-2,965E-4
7,450	-0,992	-0,001
7,500	-0,991	-8,655E-5
7,550	-0,990	-0,001
7,600	-0,990	-1,378E-4
7,650	-0,988	-0,001
7,700	-0,988	2,698E-5
7,750	-0,986	-0,001
7,800	-0,985	1,869E-4
7,850	-0,985	-0,001
7,900	-0,985	8,191E-5
7,950	-0,985	-0,001
8,000	-0,985	-1,086E-5
8,050	-0,985	-9,496E-4
8,100	-0,985	2,820E-5
8,150	-0,985	-0,001
8,200	-0,985	-5,725E-5
8,250	-0,985	-9,032E-4
8,300	-0,985	2,589E-4
8,350	-0,985	-9,728E-4
8,400	-0,985	5,872E-5
8,450	-0,985	-0,001
8,500	-0,985	-3,540E-6
8,550	-0,985	-8,898E-4
8,600	-0,985	1,454E-4
8,650	-0,983	-8,800E-4
8,700	-0,983	8,313E-5
8,750	-0,983	-9,923E-4
8,800	-0,982	2,699E-4
8,850	-0,980	-6,285E-4
8,900	-0,980	3,712E-4
8,950	-0,979	-6,725E-4
9,000	-0,978	3,492E-4
9,050	-0,977	-7,628E-4
9,100	-0,977	2,675E-4
9,150	-0,976	-4,698E-4
9,200	-0,973	7,142E-4
9,250	-0,965	-1,097E-4
9,300	-0,958	9,950E-4
9,350	-0,955	2,235E-4
9,400	-0,955	0,001
9,450	-0,955	3,248E-4
9,500	-0,955	0,001
9,550	-0,955	9,656E-5
9,600	-0,955	0,001
9,650	-0,955	4,286E-4
9,700	-0,955	0,001
9,750	-0,955	1,564E-4
9,800	-0,955	0,001
9,850	-0,955	3,065E-4
9,900	-0,954	0,001
9,950	-0,950	3,932E-4
10,000	-0,949	0,002
10,050	-0,949	3,639E-4
10,100	-0,948	0,002
10,150	-0,947	5,043E-4
10,200	-0,946	0,002
10,250	-0,946	5,897E-4
10,300	-0,946	0,002
10,350	-0,946	5,763E-4
10,400	-0,946	0,002
10,450	-0,946	4,615E-4
10,500	-0,946	0,002
10,550	-0,946	6,276E-4
10,600	-0,946	0,002
10,650	-0,946	7,655E-4
10,700	-0,946	0,002
10,750	-0,946	7,167E-4
10,800	-0,945	0,002
10,850	-0,942	6,630E-4
10,900	-0,939	0,002
10,950	-0,938	0,001
11,000	-0,938	0,002
11,050	-0,937	9,266E-4
11,100	-0,935	0,002
11,150	-0,934	9,840E-4
11,200	-0,933	0,002
11,250	-0,931	0,001
11,300	-0,929	0,002
11,350	-0,927	0,001
11,400	-0,926	0,002
11,450	-0,926	0,001
11,500	-0,925	0,003
11,550	-0,924	0,002
11,600	-0,923	0,003
11,650	-0,922	0,002
11,700	-0,921	0,003
11,750	-0,921	0,002
11,800	-0,920	0,003
11,850	-0,919	0,002
11,900	-0,917	0,003
11,950	-0,915	0,002
12,000	-0,914	0,003
12,050	-0,914	0,002
12,100	-0,914	0,003
12,150	-0,915	0,002
12,200	-0,914	0,003
12,250	-0,914	0,002
12,300	-0,911	0,003
12,350	-0,907	0,002
12,400	-0,906	0,003
12,450	-0,906	0,002
12,500	-0,906	0,004
12,550	-0,906	0,002
12,600	-0,906	0,003
12,650	-0,905	0,002
12,700	-0,902	0,004
12,750	-0,901	0,003
12,800	-0,900	0,004
12,850	-0,899	0,003
12,900	-0,899	0,004
12,950	-0,899	0,003
13,000	-0,899	0,004
13,050	-0,897	0,003
13,100	-0,895	0,004
13,150	-0,894	0,003
13,200	-0,894	0,004
13,250	-0,894	0,003
13,300	-0,892	0,004
13,350	-0,891	0,003
13,400	-0,890	0,004
13,450	-0,890	0,003
13,500	-0,889	0,004
13,550	-0,887	0,003
13,600	-0,884	0,004
13,650	-0,880	0,004
13,700	-0,879	0,005
13,750	-0,878	0,004
13,800	-0,878	0,005
13,850	-0,878	0,004
13,900	-0,878	0,005
13,950	-0,878	0,004
14,000	-0,879	0,004
14,050	-0,878	0,004
14,100	-0,879	0,005
14,150	-0,879	0,003
14,200	-0,879	0,004
14,250	-0,879	0,004
14,300	-0,878	0,005
14,350	-0,878	0,004
14,400	-0,876	0,005
14,450	-0,875	0,004
14,500	-0,874	0,005
14,550	-0,872	0,004
14,600	-0,872	0,005
14,650	-0,872	0,004
14,700	-0,872	0,005
14,750	-0,870	0,004
14,800	-0,868	0,005
14,850	-0,868	0,004
14,900	-0,867	0,005
14,950	-0,867	0,004
15,000	-0,867	0,005
15,050	-0,867	0,004
15,100	-0,865	0,005
15,150	-0,864	0,004
15,200	-0,865	0,005
15,250	-0,863	0,004
15,300	-0,862	0,005
15,350	-0,862	0,004
15,400	-0,857	0,006
15,450	-0,855	0,005
15,500	-0,854	0,006
15,550	-0,854	0,005
15,600	-0,854	0,006
15,650	-0,854	0,005
15,700	-0,854	0,006
15,750	-0,854	0,005
15,800	-0,854	0,006
15,850	-0,854	0,005
15,900	-0,854	0,006
15,950	-0,854	0,004
16,000	-0,854	0,006
16,050	-0,854	0,005
16,100	-0,854	0,006
16,150	-0,854	0,005
16,200	-0,854	0,006
16,250	-0,854	0,005
16,300	-0,854	0,006
16,350	-0,854	0,005
16,400	-0,854	0,006
16,450	-0,853	0,005
16,500	-0,851	0,006
16,550	-0,850	0,005
16,600	-0,850	0,006
16,650	-0,849	0,005
16,700	-0,847	0,006
16,750	-0,845	0,005
16,800	-0,840	0,006
16,850	-0,835	0,006
16,900	-0,833	0,007
16,950	-0,832	0,006
17,000	-0,832	0,007
17,050	-0,831	0,006
17,100	-0,830	0,007
17,150	-0,829	0,006
17,200	-0,827	0,007
17,250	-0,826	0,006
17,300	-0,825	0,007
17,350	-0,822	0,006
17,400	-0,818	0,007
17,450	-0,814	0,006
17,500	-0,810	0,008
17,550	-0,809	0,007
17,600	-0,809	0,008
17,650	-0,809	0,007
17,700	-0,808	0,008
17,750	-0,807	0,007
17,800	-0,805	0,008
17,850	-0,804	0,007
17,900	-0,803	0,008
17,950	-0,803	0,007
18,000	-0,802	0,008
18,050	-0,801	0,007
18,100	-0,800	0,008
18,150	-0,800	0,007
18,200	-0,799	0,008
18,250	-0,798	0,007
18,300	-0,797	0,008
18,350	-0,796	0,007
18,400	-0,796	0,008
18,450	-0,796	0,007
18,500	-0,796	0,009
18,550	-0,796	0,007
18,600	-0,796	0,008
18,650	-0,796	0,007
18,700	-0,796	0,009
18,750	-0,796	0,007
18,800	-0,795	0,008
18,850	-0,793	0,007
18,900	-0,792	0,008
18,950	-0,789	0,008
19,000	-0,788	0,009
19,050	-0,788	0,008
19,100	-0,789	0,009
19,150	-0,787	0,008
19,200	-0,784	0,009
19,250	-0,783	0,008
19,300	-0,783	0,009
19,350	-0,783	0,008
19,400	-0,783	0,009
19,450	-0,782	0,008
19,500	-0,778	0,009
19,550	-0,778	0,008
19,600	-0,777	0,009
19,650	-0,777	0,008
19,700	-0,777	0,009
19,750	-0,778	0,008
19,800	-0,777	0,009
19,850	-0,778	0,008
19,900	-0,778	0,009
19,950	-0,777	0,008
20,000	-0,777	0,009
20,050	-0,777	0,009
20,100	-0,778	0,009
20,150	-0,777	0,008
20,200	-0,777	0,009
20,250	-0,776	0,008
20,300	-0,775	0,010
20,350	-0,772	0,009
20,400	-0,771	0,009
20,450	-0,768	0,009
20,500	-0,766	0,010
20,550	-0,765	0,009
20,600	-0,765	0,010
20,650	-0,765	0,009
20,700	-0,765	0,010
20,750	-0,765	0,009
20,800	-0,765	0,010
20,850	-0,765	0,009
20,900	-0,764	0,010
20,950	-0,763	0,009
21,000	-0,763	0,010
21,050	-0,761	0,009
21,100	-0,758	0,010
21,150	-0,757	0,009
21,200	-0,756	0,010
21,250	-0,756	0,009
21,300	-0,756	0,010
21,350	-0,753	0,010
21,400	-0,752	0,011
21,450	-0,752	0,009
21,500	-0,752	0,011
21,550	-0,752	0,010
21,600	-0,751	0,011
21,650	-0,750	0,010
21,700	-0,750	0,011
21,750	-0,750	0,010
21,800	-0,751	0,010
21,850	-0,750	0,010
21,900	-0,750	0,010
21,950	-0,750	0,010
22,000	-0,750	0,011
22,050	-0,750	0,010
22,100	-0,750	0,011
22,150	-0,750	0,010
22,200	-0,750	0,011
22,250	-0,750	0,010
22,300	-0,750	0,011
22,350	-0,750	0,010
22,400	-0,750	0,011
22,450	-0,750	0,010
22,500	-0,750	0,011
22,550	-0,750	0,010
22,600	-0,750	0,011
22,650	-0,751	0,010
22,700	-0,749	0,011
22,750	-0,746	0,010
22,800	-0,745	0,011
22,850	-0,745	0,010
22,900	-0,745	0,011
22,950	-0,742	0,010
23,000	-0,740	0,011
23,050	-0,738	0,010
23,100	-0,736	0,012
23,150	-0,736	0,010
23,200	-0,735	0,012
23,250	-0,733	0,010
23,300	-0,731	0,011
23,350	-0,729	0,011
23,400	-0,729	0,012
23,450	-0,729	0,011
23,500	-0,728	0,012
23,550	-0,725	0,011
23,600	-0,723	0,012
23,650	-0,721	0,011
23,700	-0,719	0,012
23,750	-0,717	0,011
23,800	-0,716	0,012
23,850	-0,716	0,011
23,900	-0,716	0,013
23,950	-0,717	0,011
24,000	-0,717	0,012
24,050	-0,716	0,011
24,100	-0,716	0,012
24,150	-0,716	0,011
24,200	-0,716	0,012
24,250	-0,717	0,011
24,300	-0,716	0,012
24,350	-0,716	0,011
24,400	-0,716	0,012
24,450	-0,716	0,011
24,500	-0,712	0,013
24,550	-0,708	0,012
24,600	-0,706	0,013
24,650	-0,705	0,012
24,700	-0,704	0,013
24,750	-0,704	0,012
24,800	-0,704	0,013
24,850	-0,704	0,012
24,900	-0,703	0,013
24,950	-0,702	0,012
25,000	-0,701	0,013
25,050	-0,701	0,012
25,100	-0,701	0,013
25,150	-0,700	0,012
25,200	-0,700	0,013
25,250	-0,700	0,012
25,300	-0,700	0,013
25,350	-0,699	0,012
25,400	-0,698	0,013
25,450	-0,697	0,012
25,500	-0,696	0,013
25,550	-0,696	0,013
25,600	-0,696	0,013
25,650	-0,696	0,012
25,700	-0,696	0,013
25,750	-0,695	0,013
25,800	-0,695	0,013
25,850	-0,696	0,012
25,900	-0,695	0,013
25,950	-0,696	0,012
26,000	-0,695	0,014
26,050	-0,693	0,013
26,100	-0,689	0,014
26,150	-0,685	0,013
26,200	-0,683	0,014
26,250	-0,683	0,013
26,300	-0,683	0,014
26,350	-0,683	0,013
26,400	-0,683	0,014
26,450	-0,682	0,013
26,500	-0,681	0,014
26,550	-0,680	0,013
26,600	-0,680	0,014
26,650	-0,678	0,013
26,700	-0,677	0,015
26,750	-0,677	0,013
26,800	-0,676	0,014
26,850	-0,677	0,014
26,900	-0,677	0,014
26,950	-0,676	0,014
27,000	-0,677	0,014
27,050	-0,676	0,014
27,100	-0,676	0,014
27,150	-0,676	0,014
27,200	-0,674	0,014
27,250	-0,672	0,014
27,300	-0,669	0,015
27,350	-0,665	0,014
27,400	-0,662	0,015
27,450	-0,661	0,014
27,500	-0,661	0,015
27,550	-0,660	0,014
27,600	-0,661	0,015
27,650	-0,660	0,015
27,700	-0,661	0,015
27,750	-0,661	0,014
27,800	-0,660	0,015
27,850	-0,660	0,014
27,900	-0,661	0,015
27,950	-0,660	0,015
28,000	-0,660	0,015
28,050	-0,661	0,014
28,100	-0,660	0,015
28,150	-0,660	0,015
28,200	-0,660	0,015
28,250	-0,660	0,015
28,300	-0,660	0,015
28,350	-0,660	0,015
28,400	-0,660	0,016
28,450	-0,660	0,014
28,500	-0,658	0,015
28,550	-0,656	0,015
28,600	-0,656	0,015
28,650	-0,655	0,015
28,700	-0,654	0,016
28,750	-0,654	0,015
28,800	-0,654	0,016
28,850	-0,654	0,015
28,900	-0,654	0,016
28,950	-0,654	0,015
29,000	-0,654	0,016
29,050	-0,653	0,015
29,100	-0,652	0,016
29,150	-0,651	0,015
29,200	-0,651	0,016
29,250	-0,650	0,015
29,300	-0,649	0,016
29,350	-0,649	0,015
29,400	-0,649	0,016
29,450	-0,649	0,015
29,500	-0,649	0,016
29,550	-0,649	0,015
29,600	-0,649	0,016
29,650	-0,648	0,015
29,700	-0,647	0,016
29,750	-0,646	0,016
29,800	-0,646	0,016
29,850	-0,646	0,016
29,900	-0,644	0,016
29,950	-0,643	0,016
30,000	-0,641	0,016
30,050	-0,639	0,016
30,100	-0,637	0,017
30,150	-0,637	0,016
30,200	-0,637	0,016
30,250	-0,637	0,016
30,300	-0,637	0,016
30,350	-0,637	0,016
30,400	-0,636	0,017
30,450	-0,637	0,016
30,500	-0,636	0,017
30,550	-0,634	0,016
30,600	-0,634	0,017
30,650	-0,632	0,016
30,700	-0,630	0,017
30,750	-0,628	0,016
30,800	-0,626	0,017
30,850	-0,625	0,017
30,900	-0,625	0,017
30,950	-0,625	0,017
31,000	-0,625	0,017
31,050	-0,625	0,017
31,100	-0,625	0,017
31,150	-0,625	0,017
31,200	-0,625	0,017
31,250	-0,625	0,016
31,300	-0,625	0,017
31,350	-0,625	0,017
31,400	-0,624	0,017
31,450	-0,622	0,017
31,500	-0,620	0,017
31,550	-0,618	0,017
31,600	-0,615	0,018
31,650	-0,613	0,017
31,700	-0,611	0,018
31,750	-0,608	0,018
31,800	-0,607	0,018
31,850	-0,604	0,018
31,900	-0,612	0,018
31,950	-0,600	0,018
32,000	-0,598	0,019
32,050	-0,598	0,018
32,100	-0,598	0,019
32,150	-0,598	0,018
32,200	-0,598	0,019
32,250	-0,598	0,018
32,300	-0,598	0,019
32,350	-0,598	0,018
32,400	-0,598	0,019
32,450	-0,596	0,018
32,500	-0,594	0,019
32,550	-0,591	0,018
32,600	-0,588	0,019
32,650	-0,586	0,019
32,700	-0,584	0,019
32,750	-0,582	0,019
32,800	-0,580	0,020
32,850	-0,580	0,019
32,900	-0,579	0,020
32,950	-0,579	0,019
33,000	-0,577	0,020
33,050	-0,576	0,020
33,100	-0,576	0,020
33,150	-0,576	0,019
33,200	-0,576	0,020
33,250	-0,576	0,019
33,300	-0,576	0,020
33,350	-0,576	0,020
33,400	-0,576	0,020
33,450	-0,576	0,020
33,500	-0,576	0,020
33,550	-0,576	0,020
33,600	-0,575	0,020
33,650	-0,575	0,020
33,700	-0,575	0,020
33,750	-0,574	0,020
33,800	-0,574	0,020
33,850	-0,573	0,020
33,900	-0,571	0,021
33,950	-0,568	0,020
34,000	-0,568	0,020
34,050	-0,568	0,020
34,100	-0,568	0,021
34,150	-0,568	0,020
34,200	-0,568	0,021
34,250	-0,568	0,020
34,300	-0,568	0,021
34,350	-0,568	0,020
34,400	-0,568	0,021
34,450	-0,568	0,020
34,500	-0,568	0,021
34,550	-0,568	0,020
34,600	-0,568	0,020
34,650	-0,568	0,020
34,700	-0,568	0,020
34,750	-0,568	0,020
34,800	-0,567	0,021
34,850	-0,567	0,020
34,900	-0,567	0,021
34,950	-0,566	0,020
35,000	-0,566	0,021
35,050	-0,566	0,020
35,100	-0,566	0,021
35,150	-0,566	0,020
35,200	-0,566	0,020
35,250	-0,563	0,020
35,300	-0,562	0,021
35,350	-0,562	0,021
35,400	-0,561	0,021
35,450	-0,562	0,021
35,500	-0,562	0,021
35,550	-0,562	0,021
35,600	-0,562	0,021
35,650	-0,562	0,020
35,700	-0,562	0,021
35,750	-0,562	0,020
35,800	-0,562	0,021
35,850	-0,561	0,021
35,900	-0,561	0,021
35,950	-0,561	0,021
36,000	-0,559	0,021
36,050	-0,558	0,021
36,100	-0,556	0,021
36,150	-0,555	0,021
36,200	-0,553	0,022
36,250	-0,553	0,021
36,300	-0,553	0,022
36,350	-0,553	0,021
36,400	-0,553	0,021
36,450	-0,553	0,021
36,500	-0,552	0,022
36,550	-0,551	0,021
36,600	-0,551	0,022
36,650	-0,550	0,021
36,700	-0,550	0,021
36,750	-0,549	0,021
36,800	-0,549	0,022
36,850	-0,548	0,022
36,900	-0,548	0,022
36,950	-0,547	0,021
37,000	-0,547	0,022
37,050	-0,546	0,022
37,100	-0,546	0,022
37,150	-0,546	0,022
37,200	-0,545	0,022
37,250	-0,545	0,022
37,300	-0,544	0,022
37,350	-0,545	0,022
37,400	-0,545	0,022
37,450	-0,545	0,022
37,500	-0,545	0,022
37,550	-0,545	0,021
37,600	-0,544	0,022
37,650	-0,545	0,022
37,700	-0,544	0,022
37,750	-0,544	0,022
37,800	-0,544	0,022
37,850	-0,544	0,022
37,900	-0,545	0,022
37,950	-0,545	0,022
38,000	-0,544	0,022
38,050	-0,542	0,022
38,100	-0,542	0,022
38,150	-0,541	0,022
38,200	-0,541	0,022
38,250	-0,540	0,022
38,300	-0,539	0,022
38,350	-0,538	0,022
38,400	-0,538	0,023
38,450	-0,538	0,022
38,500	-0,537	0,023
38,550	-0,536	0,022
38,600	-0,535	0,023
38,650	-0,534	0,022
38,700	-0,533	0,023
38,750	-0,533	0,023
38,800	-0,533	0,023
38,850	-0,533	0,022
38,900	-0,533	0,023
38,950	-0,533	0,022
39,000	-0,531	0,023
39,050	-0,528	0,023
39,100	-0,527	0,023
39,150	-0,527	0,023
39,200	-0,527	0,023
39,250	-0,527	0,023
39,300	-0,527	0,023
39,350	-0,526	0,023
39,400	-0,527	0,023
39,450	-0,526	0,023
39,500	-0,527	0,023
39,550	-0,526	0,023
39,600	-0,527	0,023
39,650	-0,527	0,023
39,700	-0,527	0,023
39,750	-0,527	0,023
39,800	-0,526	0,023
39,850	-0,526	0,023
39,900	-0,526	0,024
39,950	-0,527	0,023
40,000	-0,526	0,024
40,050	-0,527	0,023
40,100	-0,527	0,023
40,150	-0,526	0,023
40,200	-0,525	0,023
40,250	-0,524	0,023
40,300	-0,523	0,024
40,350	-0,522	0,023
40,400	-0,520	0,024
40,450	-0,519	0,023
40,500	-0,518	0,024
40,550	-0,517	0,023
40,600	-0,515	0,024
40,650	-0,515	0,024
40,700	-0,515	0,024
40,750	-0,515	0,024
40,800	-0,515	0,024
40,850	-0,513	0,024
40,900	-0,513	0,024
40,950	-0,513	0,024
41,000	-0,512	0,024
41,050	-0,511	0,024
41,100	-0,511	0,024
41,150	-0,511	0,024
41,200	-0,511	0,024
41,250	-0,511	0,024
41,300	-0,511	0,024
41,350	-0,510	0,024
41,400	-0,511	0,024
41,450	-0,511	0,024
41,500	-0,511	0,024
41,550	-0,511	0,024
41,600	-0,510	0,024
41,650	-0,511	0,024
41,700	-0,510	0,024
41,750	-0,508	0,024
41,800	-0,507	0,024
41,850	-0,506	0,024
41,900	-0,505	0,025
41,950	-0,503	0,024
42,000	-0,503	0,025
42,050	-0,503	0,024
42,100	-0,503	0,025
42,150	-0,503	0,024
42,200	-0,501	0,025
42,250	-0,499	0,025
42,300	-0,499	0,025
42,350	-0,499	0,024
42,400	-0,499	0,025
42,450	-0,499	0,025
42,500	-0,499	0,025
42,550	-0,499	0,025
42,600	-0,499	0,025
42,650	-0,499	0,025
42,700	-0,499	0,025
42,750	-0,499	0,025
42,800	-0,499	0,025
42,850	-0,499	0,025
42,900	-0,499	0,025
42,950	-0,498	0,025
43,000	-0,495	0,025
43,050	-0,493	0,025
43,100	-0,491	0,026
43,150	-0,490	0,025
43,200	-0,490	0,026
43,250	-0,489	0,025
43,300	-0,489	0,026
43,350	-0,488	0,025
43,400	-0,488	0,026
43,450	-0,488	0,025
43,500	-0,488	0,026
43,550	-0,487	0,025
43,600	-0,516	0,025
43,650	-0,495	0,025
43,700	-0,486	0,026
43,750	-0,485	0,026
43,800	-0,485	0,026
43,850	-0,485	0,026
43,900	-0,485	0,026
43,950	-0,485	0,025
44,000	-0,485	0,026
44,050	-0,485	0,025
44,100	-0,485	0,026
44,150	-0,485	0,026
44,200	-0,485	0,026
44,250	-0,485	0,026
44,300	-0,485	0,026
44,350	-0,483	0,026
44,400	-0,481	0,026
44,450	-0,480	0,026
44,500	-0,480	0,026
44,550	-0,478	0,026
44,600	-0,475	0,027
44,650	-0,472	0,027
44,700	-0,472	0,027
44,750	-0,472	0,027
44,800	-0,472	0,027
44,850	-0,471	0,027
44,900	-0,472	0,027
44,950	-0,472	0,027
45,000	-0,472	0,027
45,050	-0,472	0,026
45,100	-0,472	0,027
45,150	-0,472	0,027
45,200	-0,472	0,027
45,250	-0,471	0,027
45,300	-0,470	0,027
45,350	-0,469	0,027
45,400	-0,467	0,027
45,450	-0,467	0,027
45,500	-0,465	0,028
45,550	-0,463	0,027
45,600	-0,462	0,028
45,650	-0,461	0,028
45,700	-0,461	0,028
45,750	-0,461	0,027
45,800	-0,460	0,028
45,850	-0,459	0,028
45,900	-0,459	0,028
45,950	-0,459	0,028
46,000	-0,458	0,028
46,050	-0,459	0,028
46,100	-0,459	0,028
46,150	-0,458	0,028
46,200	-0,459	0,028
46,250	-0,459	0,028
46,300	-0,458	0,028
46,350	-0,459	0,028
46,400	-0,459	0,028
46,450	-0,458	0,028
46,500	-0,454	0,028
46,550	-0,453	0,028
46,600	-0,451	0,029
46,650	-0,450	0,029
46,700	-0,450	0,029
46,750	-0,450	0,028
46,800	-0,449	0,029
46,850	-0,449	0,028
46,900	-0,449	0,029
46,950	-0,448	0,028
47,000	-0,447	0,029
47,050	-0,447	0,028
47,100	-0,447	0,029
47,150	-0,446	0,029
47,200	-0,447	0,029
47,250	-0,447	0,028
47,300	-0,447	0,029
47,350	-0,447	0,029
47,400	-0,447	0,029
47,450	-0,446	0,029
47,500	-0,447	0,029
47,550	-0,446	0,029
47,600	-0,444	0,029
47,650	-0,443	0,029
47,700	-0,441	0,029
47,750	-0,440	0,029
47,800	-0,440	0,030
47,850	-0,440	0,029
47,900	-0,440	0,029
47,950	-0,440	0,029
48,000	-0,440	0,029
48,050	-0,440	0,029
48,100	-0,440	0,029
48,150	-0,440	0,029
48,200	-0,440	0,029
48,250	-0,440	0,029
48,300	-0,438	0,030
48,350	-0,435	0,029
48,400	-0,434	0,030
48,450	-0,434	0,029
48,500	-0,433	0,030
48,550	-0,432	0,030
48,600	-0,432	0,030
48,650	-0,431	0,030
48,700	-0,430	0,030
48,750	-0,430	0,030
48,800	-0,429	0,030
48,850	-0,429	0,030
48,900	-0,429	0,030
48,950	-0,427	0,030
49,000	-0,426	0,031
49,050	-0,427	0,030
49,100	-0,426	0,031
49,150	-0,427	0,030
49,200	-0,427	0,031
49,250	-0,426	0,030
49,300	-0,426	0,030
49,350	-0,426	0,030
49,400	-0,426	0,031
49,450	-0,426	0,030
49,500	-0,426	0,030
49,550	-0,426	0,030
49,600	-0,425	0,031
49,650	-0,426	0,030
49,700	-0,426	0,031
49,750	-0,426	0,030
49,800	-0,426	0,030
49,850	-0,426	0,030
49,900	-0,426	0,030
49,950	-0,425	0,030
50,000	-0,424	0,031
50,050	-0,423	0,030
50,100	-0,423	0,031
50,150	-0,422	0,030
50,200	-0,420	0,031
50,250	-0,419	0,030
50,300	-0,418	0,031
50,350	-0,417	0,031
50,400	-0,416	0,031
50,450	-0,416	0,031
50,500	-0,415	0,031
50,550	-0,415	0,031
50,600	-0,415	0,031
50,650	-0,415	0,031
50,700	-0,415	0,032
50,750	-0,415	0,031
50,800	-0,415	0,031
50,850	-0,415	0,031
50,900	-0,415	0,031
50,950	-0,415	0,031
51,000	-0,415	0,031
51,050	-0,415	0,031
51,100	-0,415	0,032
51,150	-0,415	0,031
51,200	-0,415	0,031
51,250	-0,415	0,031
51,300	-0,415	0,031
51,350	-0,415	0,031
51,400	-0,415	0,031
51,450	-0,415	0,031
51,500	-0,413	0,032
51,550	-0,411	0,031
51,600	-0,409	0,032
51,650	-0,409	0,031
51,700	-0,408	0,032
51,750	-0,408	0,032
51,800	-0,408	0,032
51,850	-0,408	0,031
51,900	-0,409	0,032
51,950	-0,408	0,031
52,000	-0,408	0,032
52,050	-0,408	0,032
52,100	-0,409	0,032
52,150	-0,407	0,032
52,200	-0,406	0,032
52,250	-0,405	0,032
52,300	-0,405	0,032
52,350	-0,405	0,032
52,400	-0,404	0,033
52,450	-0,404	0,032
52,500	-0,404	0,032
52,550	-0,403	0,032
52,600	-0,403	0,033
52,650	-0,402	0,032
52,700	-0,401	0,032
52,750	-0,400	0,032
52,800	-0,398	0,033
52,850	-0,397	0,032
52,900	-0,397	0,033
52,950	-0,395	0,032
53,000	-0,393	0,033
53,050	-0,391	0,033
53,100	-0,391	0,033
53,150	-0,390	0,033
53,200	-0,388	0,034
53,250	-0,386	0,033
53,300	-0,384	0,034
53,350	-0,382	0,034
53,400	-0,381	0,034
53,450	-0,380	0,034
53,500	-0,379	0,035
53,550	-0,378	0,034
53,600	-0,377	0,035
53,650	-0,377	0,034
53,700	-0,376	0,035
53,750	-0,375	0,034
53,800	-0,375	0,035
53,850	-0,374	0,034
53,900	-0,373	0,035
53,950	-0,372	0,035
54,000	-0,371	0,035
54,050	-0,370	0,035
54,100	-0,369	0,036
54,150	-0,369	0,035
54,200	-0,368	0,035
54,250	-0,367	0,035
54,300	-0,367	0,035
54,350	-0,365	0,035
54,400	-0,364	0,036
54,450	-0,363	0,035
54,500	-0,362	0,036
54,550	-0,362	0,035
54,600	-0,362	0,036
54,650	-0,362	0,036
54,700	-0,362	0,036
54,750	-0,362	0,036
54,800	-0,362	0,036
54,850	-0,362	0,036
54,900	-0,362	0,036
54,950	-0,362	0,036
55,000	-0,362	0,036
55,050	-0,362	0,035
55,100	-0,362	0,036
55,150	-0,362	0,036
55,200	-0,362	0,036
55,250	-0,362	0,035
55,300	-0,362	0,036
55,350	-0,362	0,036
55,400	-0,361	0,036
55,450	-0,361	0,036
55,500	-0,359	0,036
55,550	-0,355	0,036
55,600	-0,351	0,037
55,650	-0,350	0,036
55,700	-0,348	0,037
55,750	-0,347	0,037
55,800	-0,347	0,038
55,850	-0,347	0,037
55,900	-0,346	0,037
55,950	-0,346	0,037
56,000	-0,345	0,038
56,050	-0,345	0,037
56,100	-0,344	0,038
56,150	-0,343	0,038
56,200	-0,343	0,038
56,250	-0,342	0,037
56,300	-0,342	0,038
56,350	-0,341	0,037
56,400	-0,340	0,038
56,450	-0,339	0,038
56,500	-0,339	0,038
56,550	-0,338	0,037
56,600	-0,337	0,038
56,650	-0,337	0,038
56,700	-0,336	0,039
56,750	-0,336	0,038
56,800	-0,335	0,038
56,850	-0,335	0,038
56,900	-0,335	0,039
56,950	-0,334	0,038
57,000	-0,333	0,039
57,050	-0,332	0,039
57,100	-0,330	0,039
57,150	-0,329	0,039
57,200	-0,329	0,039
57,250	-0,329	0,039
57,300	-0,328	0,040
57,350	-0,329	0,039
57,400	-0,329	0,039
57,450	-0,329	0,039
57,500	-0,329	0,039
57,550	-0,328	0,039
57,600	-0,329	0,039
57,650	-0,328	0,039
57,700	-0,329	0,039
57,750	-0,328	0,039
57,800	-0,328	0,040
57,850	-0,329	0,039
57,900	-0,328	0,040
57,950	-0,325	0,039
58,000	-0,322	0,040
58,050	-0,321	0,040
58,100	-0,321	0,040
58,150	-0,320	0,040
58,200	-0,320	0,040
58,250	-0,319	0,040
58,300	-0,319	0,040
58,350	-0,319	0,040
58,400	-0,319	0,040
58,450	-0,319	0,040
58,500	-0,319	0,040
58,550	-0,318	0,040
58,600	-0,317	0,041
58,650	-0,317	0,040
58,700	-0,317	0,041
58,750	-0,316	0,040
58,800	-0,315	0,041
58,850	-0,315	0,040
58,900	-0,315	0,041
58,950	-0,315	0,040
59,000	-0,314	0,041
59,050	-0,314	0,040
59,100	-0,313	0,041
59,150	-0,313	0,040
59,200	-0,311	0,041
59,250	-0,310	0,041
59,300	-0,309	0,042
59,350	-0,308	0,041
59,400	-0,307	0,042
59,450	-0,306	0,041
59,500	-0,305	0,042
59,550	-0,304	0,042
59,600	-0,304	0,042
59,650	-0,302	0,042
59,700	-0,301	0,043
59,750	-0,299	0,042
59,800	-0,298	0,043
59,850	-0,298	0,042
59,900	-0,298	0,043
59,950	-0,298	0,042
60,000	-0,298	0,043
60,050	-0,298	0,042
60,100	-0,298	0,043
60,150	-0,298	0,042
60,200	-0,298	0,043
60,250	-0,298	0,042
60,300	-0,298	0,043
60,350	-0,298	0,042
60,400	-0,298	0,043
60,450	-0,297	0,042
60,500	-0,296	0,043
60,550	-0,295	0,043
60,600	-0,294	0,043
60,650	-0,293	0,043
60,700	-0,292	0,044
60,750	-0,292	0,043
60,800	-0,291	0,044
60,850	-0,290	0,043
60,900	-0,290	0,044
60,950	-0,289	0,044
61,000	-0,289	0,044
61,050	-0,288	0,043
61,100	-0,287	0,044
61,150	-0,287	0,044
61,200	-0,287	0,044
61,250	-0,286	0,044
61,300	-0,287	0,044
61,350	-0,285	0,044
61,400	-0,285	0,045
61,450	-0,285	0,044
61,500	-0,284	0,045
61,550	-0,284	0,044
61,600	-0,284	0,045
61,650	-0,285	0,044
61,700	-0,284	0,045
61,750	-0,284	0,044
61,800	-0,285	0,044
61,850	-0,285	0,044
61,900	-0,284	0,045
61,950	-0,284	0,044
62,000	-0,284	0,045
62,050	-0,284	0,044
62,100	-0,284	0,045
62,150	-0,284	0,044
62,200	-0,284	0,045
62,250	-0,284	0,044
62,300	-0,284	0,045
62,350	-0,284	0,044
62,400	-0,284	0,045
62,450	-0,284	0,044
62,500	-0,282	0,045
62,550	-0,282	0,044
62,600	-0,281	0,045
62,650	-0,281	0,044
62,700	-0,281	0,045
62,750	-0,281	0,044
62,800	-0,281	0,045
62,850	-0,281	0,045
62,900	-0,281	0,045
62,950	-0,281	0,044
63,000	-0,281	0,045
63,050	-0,281	0,044
63,100	-0,281	0,045
63,150	-0,281	0,044
63,200	-0,281	0,045
63,250	-0,281	0,045
63,300	-0,281	0,045
63,350	-0,281	0,045
63,400	-0,281	0,045
63,450	-0,281	0,045
63,500	-0,281	0,045
63,550	-0,281	0,044
63,600	-0,278	0,046
63,650	-0,277	0,045
63,700	-0,276	0,046
63,750	-0,276	0,045
63,800	-0,275	0,046
63,850	-0,275	0,045
63,900	-0,275	0,046
63,950	-0,275	0,045
64,000	-0,275	0,046
64,050	-0,273	0,045
64,100	-0,273	0,046
64,150	-0,273	0,045
64,200	-0,273	0,046
64,250	-0,271	0,046
64,300	-0,269	0,047
64,350	-0,268	0,046
64,400	-0,268	0,047
64,450	-0,266	0,046
64,500	-0,265	0,047
64,550	-0,265	0,046
64,600	-0,263	0,047
64,650	-0,263	0,047
64,700	-0,262	0,048
64,750	-0,262	0,047
64,800	-0,262	0,047
64,850	-0,261	0,047
64,900	-0,260	0,048
64,950	-0,259	0,047
65,000	-0,258	0,048
65,050	-0,257	0,047
65,100	-0,256	0,048
65,150	-0,255	0,048
65,200	-0,255	0,048
65,250	-0,254	0,048
65,300	-0,254	0,049
65,350	-0,254	0,048
65,400	-0,254	0,049
65,450	-0,254	0,048
65,500	-0,254	0,049
65,550	-0,254	0,048
65,600	-0,254	0,049
65,650	-0,254	0,048
65,700	-0,254	0,049
65,750	-0,254	0,048
65,800	-0,254	0,049
65,850	-0,254	0,048
65,900	-0,254	0,049
65,950	-0,254	0,048
66,000	-0,254	0,049
66,050	-0,254	0,048
66,100	-0,254	0,049
66,150	-0,254	0,048
66,200	-0,254	0,049
66,250	-0,254	0,048
66,300	-0,253	0,049
66,350	-0,251	0,048
66,400	-0,249	0,050
66,450	-0,248	0,049
66,500	-0,246	0,050
66,550	-0,245	0,049
66,600	-0,244	0,050
66,650	-0,244	0,049
66,700	-0,242	0,050
66,750	-0,241	0,050
66,800	-0,241	0,051
66,850	-0,240	0,050
66,900	-0,238	0,051
66,950	-0,237	0,050
67,000	-0,237	0,051
67,050	-0,236	0,051
67,100	-0,236	0,052
67,150	-0,235	0,051
67,200	-0,234	0,052
67,250	-0,234	0,051
67,300	-0,233	0,052
67,350	-0,232	0,051
67,400	-0,233	0,052
67,450	-0,232	0,051
67,500	-0,231	0,052
67,550	-0,231	0,051
67,600	-0,230	0,053
67,650	-0,229	0,052
67,700	-0,228	0,053
67,750	-0,227	0,052
67,800	-0,227	0,053
67,850	-0,226	0,052
67,900	-0,225	0,053
67,950	-0,223	0,053
68,000	-0,221	0,054
68,050	-0,220	0,053
68,100	-0,221	0,054
68,150	-0,220	0,054
68,200	-0,220	0,054
68,250	-0,220	0,053
68,300	-0,220	0,054
68,350	-0,220	0,053
68,400	-0,220	0,054
68,450	-0,220	0,053
68,500	-0,220	0,054
68,550	-0,220	0,053
68,600	-0,220	0,054
68,650	-0,220	0,053
68,700	-0,220	0,054
68,750	-0,220	0,053
68,800	-0,220	0,054
68,850	-0,220	0,053
68,900	-0,220	0,054
68,950	-0,220	0,053
69,000	-0,220	0,054
69,050	-0,219	0,053
69,100	-0,217	0,055
69,150	-0,215	0,054
69,200	-0,214	0,055
69,250	-0,213	0,055
69,300	-0,215	0,055
69,350	-0,212	0,055
69,400	-0,209	0,056
69,450	-0,208	0,056
69,500	-0,207	0,057
69,550	-0,207	0,056
69,600	-0,206	0,057
69,650	-0,204	0,056
69,700	-0,202	0,057
69,750	-0,201	0,057
69,800	-0,200	0,058
69,850	-0,200	0,057
69,900	-0,199	0,058
69,950	-0,198	0,058
70,000	-0,197	0,059
70,050	-0,195	0,058
70,100	-0,193	0,059
70,150	-0,192	0,058
70,200	-0,191	0,060
70,250	-0,191	0,059
70,300	-0,190	0,060
70,350	-0,188	0,059
70,400	-0,186	0,061
70,450	-0,185	0,060
70,500	-0,184	0,061
70,550	-0,183	0,061
70,600	-0,183	0,062
70,650	-0,183	0,061
70,700	-0,183	0,062
70,750	-0,183	0,061
70,800	-0,183	0,062
70,850	-0,183	0,061
70,900	-0,183	0,062
70,950	-0,183	0,061
71,000	-0,183	0,062
71,050	-0,182	0,061
71,100	-0,183	0,062
71,150	-0,183	0,061
71,200	-0,183	0,062
71,250	-0,182	0,061
71,300	-0,182	0,062
71,350	-0,182	0,061
71,400	-0,182	0,062
71,450	-0,179	0,062
71,500	-0,178	0,063
71,550	-0,176	0,062
71,600	-0,175	0,064
71,650	-0,174	0,063
71,700	-0,173	0,064
71,750	-0,172	0,063
71,800	-0,171	0,065
71,850	-0,170	0,064
71,900	-0,168	0,065
71,950	-0,167	0,065
72,000	-0,166	0,066
72,050	-0,164	0,066
72,100	-0,162	0,067
72,150	-0,161	0,067
72,200	-0,160	0,068
72,250	-0,159	0,067
72,300	-0,157	0,068
72,350	-0,156	0,068
72,400	-0,154	0,070
72,450	-0,152	0,069
72,500	-0,152	0,070
72,550	-0,151	0,070
72,600	-0,150	0,071
72,650	-0,150	0,070
72,700	-0,150	0,071
72,750	-0,149	0,070
72,800	-0,150	0,071
72,850	-0,149	0,070
72,900	-0,149	0,071
72,950	-0,149	0,070
73,000	-0,150	0,071
73,050	-0,149	0,070
73,100	-0,149	0,071
73,150	-0,148	0,071
73,200	-0,147	0,071
73,250	-0,146	0,071
73,300	-0,145	0,072
73,350	-0,144	0,072
73,400	-0,143	0,073
73,450	-0,142	0,073
73,500	-0,140	0,074
73,550	-0,138	0,074
73,600	-0,136	0,075
73,650	-0,135	0,075
73,700	-0,136	0,076
73,750	-0,134	0,076
73,800	-0,133	0,077
73,850	-0,131	0,077
73,900	-0,130	0,078
73,950	-0,129	0,078
74,000	-0,128	0,079
74,050	-0,127	0,079
74,100	-0,126	0,080
74,150	-0,125	0,079
74,200	-0,125	0,080
74,250	-0,125	0,079
74,300	-0,125	0,080
74,350	-0,124	0,080
74,400	-0,124	0,081
74,450	-0,124	0,080
74,500	-0,124	0,081
74,550	-0,122	0,081
74,600	-0,121	0,082
74,650	-0,120	0,081
74,700	-0,118	0,083
74,750	-0,117	0,083
74,800	-0,117	0,084
74,850	-0,116	0,084
74,900	-0,116	0,084
74,950	-0,115	0,084
75,000	-0,115	0,085
75,050	-0,114	0,084
75,100	-0,113	0,086
75,150	-0,113	0,085
75,200	-0,112	0,086
75,250	-0,112	0,086
75,300	-0,112	0,086
75,350	-0,111	0,086
75,400	-0,110	0,087
75,450	-0,109	0,087
75,500	-0,109	0,088
75,550	-0,108	0,088
75,600	-0,108	0,088
75,650	-0,108	0,088
75,700	-0,107	0,089
75,750	-0,106	0,089
75,800	-0,106	0,090
75,850	-0,105	0,089
75,900	-0,105	0,090
75,950	-0,104	0,089
76,000	-0,104	0,091
76,050	-0,103	0,090
76,100	-0,103	0,091
76,150	-0,102	0,091
76,200	-0,102	0,092
76,250	-0,101	0,092
76,300	-0,101	0,092
76,350	-0,100	0,092
76,400	-0,101	0,093
76,450	-0,100	0,092
76,500	-0,100	0,093
76,550	-0,100	0,092
76,600	-0,100	0,093
76,650	-0,099	0,093
76,700	-0,099	0,093
76,750	-0,099	0,093
76,800	-0,100	0,093
76,850	-0,100	0,093
76,900	-0,099	0,094
76,950	-0,099	0,093
77,000	-0,099	0,093
77,050	-0,099	0,093
77,100	-0,099	0,093
77,150	-0,098	0,093
77,200	-0,097	0,095
77,250	-0,096	0,095
77,300	-0,095	0,096
77,350	-0,095	0,095
77,400	-0,094	0,096
77,450	-0,094	0,096
77,500	-0,093	0,097
77,550	-0,092	0,097
77,600	-0,091	0,098
77,650	-0,091	0,098
77,700	-0,090	0,099
77,750	-0,090	0,099
77,800	-0,089	0,100
77,850	-0,088	0,100
77,900	-0,087	0,101
77,950	-0,086	0,101
78,000	-0,086	0,102
78,050	-0,086	0,101
78,100	-0,085	0,103
78,150	-0,085	0,102
78,200	-0,085	0,103
78,250	-0,084	0,103
78,300	-0,083	0,104
78,350	-0,082	0,104
78,400	-0,082	0,105
78,450	-0,081	0,105
78,500	-0,080	0,106
78,550	-0,080	0,106
78,600	-0,079	0,107
78,650	-0,079	0,107
78,700	-0,078	0,108
78,750	-0,078	0,108
78,800	-0,078	0,109
78,850	-0,078	0,108
78,900	-0,077	0,109
78,950	-0,078	0,108
79,000	-0,077	0,109
79,050	-0,077	0,108
79,100	-0,077	0,109
79,150	-0,077	0,109
79,200	-0,077	0,109
79,250	-0,076	0,109
79,300	-0,075	0,110
79,350	-0,075	0,110
79,400	-0,074	0,111
79,450	-0,074	0,111
79,500	-0,073	0,112
79,550	-0,073	0,111
79,600	-0,072	0,113
79,650	-0,072	0,112
79,700	-0,071	0,114
79,750	-0,071	0,113
79,800	-0,070	0,115
79,850	-0,069	0,114
79,900	-0,068	0,116
79,950	-0,067	0,116
80,000	-0,066	0,118
80,050	-0,065	0,118
80,100	-0,064	0,120
80,150	-0,063	0,120
80,200	-0,062	0,121
80,250	-0,061	0,122
80,300	-0,061	0,123
80,350	-0,060	0,123
80,400	-0,059	0,125
80,450	-0,059	0,125
80,500	-0,058	0,126
80,550	-0,058	0,126
80,600	-0,058	0,127
80,650	-0,057	0,126
80,700	-0,057	0,127
80,750	-0,057	0,127
80,800	-0,057	0,128
80,850	-0,055	0,128
80,900	-0,053	0,130
80,950	-0,051	0,131
81,000	-0,049	0,134
81,050	-0,048	0,135
81,100	-0,047	0,138
81,150	-0,046	0,138
81,200	-0,045	0,141
81,250	-0,044	0,141
81,300	-0,043	0,143
81,350	-0,042	0,143
81,400	-0,042	0,145
81,450	-0,042	0,145
81,500	-0,041	0,146
81,550	-0,040	0,146
81,600	-0,039	0,149
81,650	-0,038	0,149
81,700	-0,037	0,151
81,750	-0,036	0,152
81,800	-0,035	0,154
81,850	-0,034	0,154
81,900	-0,033	0,157
81,950	-0,032	0,157
82,000	-0,032	0,159
82,050	-0,032	0,159
82,100	-0,031	0,161
82,150	-0,031	0,161
82,200	-0,030	0,163
82,250	-0,030	0,162
82,300	-0,029	0,164
82,350	-0,029	0,164
82,400	-0,028	0,165
82,450	-0,028	0,165
82,500	-0,028	0,166
82,550	-0,028	0,166
82,600	-0,028	0,167
82,650	-0,028	0,166
82,700	-0,027	0,168
82,750	-0,027	0,167
82,800	-0,025	0,169
82,850	-0,023	0,170
82,900	-0,021	0,174
82,950	-0,019	0,176
83,000	-0,018	0,180
83,050	-0,016	0,182
83,100	-0,015	0,186
83,150	-0,014	0,187
83,200	-0,013	0,190
83,250	-0,013	0,191
83,300	-0,012	0,194
83,350	-0,011	0,194
83,400	-0,011	0,197
83,450	-0,010	0,198
83,500	-0,009	0,200
83,550	-0,009	0,201
83,600	-0,008	0,204
83,650	-0,008	0,204
83,700	-0,007	0,207
83,750	-0,007	0,207
83,800	-0,006	0,209
83,850	-0,006	0,209
83,900	-0,005	0,212
83,950	-0,005	0,212
84,000	-0,005	0,214
84,050	-0,004	0,214
84,100	-0,004	0,216
84,150	-0,004	0,216
84,200	-0,004	0,217
84,250	-0,003	0,217
84,300	-0,003	0,219
84,350	-0,003	0,219
84,400	-0,003	0,220
84,450	-0,003	0,220
84,500	-0,002	0,222
84,550	-0,002	0,221
84,600	-0,002	0,223
84,650	-0,002	0,222
84,700	-0,001	0,224
84,750	-0,002	0,224
84,800	-0,001	0,225
84,850	-0,002	0,224
84,900	-0,001	0,226
84,950	-0,001	0,225
85,000	-9,022E-4	0,227
85,050	-7,899E-4	0,226
85,100	-9,047E-4	0,227
85,150	-7,203E-4	0,227
85,200	-5,055E-4	0,228
85,250	-3,907E-4	0,228
85,300	-4,078E-4	0,229
85,350	-3,273E-4	0,228
85,400	-2,076E-4	0,230
85,450	-1,661E-4	0,229
85,500	-5,017E-5	0,230
85,550	-6,482E-5	0,229
85,600	1,134E-4	0,231
85,650	3,832E-4	0,230
85,700	6,847E-4	0,232
85,750	8,568E-4	0,231
85,800	8,470E-4	0,233
85,850	9,728E-4	0,232
85,900	8,898E-4	0,233
85,950	0,001	0,233
86,000	0,002	0,235
86,050	0,002	0,234
86,100	0,002	0,236
86,150	0,002	0,236
86,200	0,003	0,238
86,250	0,003	0,238
86,300	0,004	0,240
86,350	0,004	0,240
86,400	0,004	0,242
86,450	0,004	0,242
86,500	0,005	0,244
86,550	0,005	0,245
86,600	0,005	0,247
86,650	0,006	0,248
86,700	0,006	0,250
86,750	0,007	0,250
86,800	0,007	0,252
86,850	0,007	0,253
86,900	0,008	0,255
86,950	0,008	0,255
87,000	0,008	0,258
87,050	0,009	0,258
87,100	0,009	0,261
87,150	0,009	0,262
87,200	0,010	0,264
87,250	0,010	0,264
87,300	0,010	0,267
87,350	0,011	0,267
87,400	0,011	0,270
87,450	0,011	0,270
87,500	0,011	0,273
87,550	0,011	0,273
87,600	0,012	0,276
87,650	0,012	0,276
87,700	0,012	0,278
87,750	0,012	0,279
87,800	0,012	0,281
87,850	0,013	0,281
87,900	0,013	0,283
87,950	0,013	0,283
88,000	0,013	0,285
88,050	0,014	0,286
88,100	0,014	0,289
88,150	0,015	0,290
88,200	0,015	0,292
88,250	0,015	0,293
88,300	0,015	0,296
88,350	0,016	0,298
88,400	0,016	0,300
88,450	0,016	0,302
88,500	0,016	0,305
88,550	0,017	0,306
88,600	0,017	0,309
88,650	0,017	0,310
88,700	0,018	0,314
88,750	0,018	0,315
88,800	0,018	0,318
88,850	0,018	0,319
88,900	0,018	0,323
88,950	0,019	0,324
89,000	0,018	0,327
89,050	0,019	0,328
89,100	0,019	0,331
89,150	0,019	0,332
89,200	0,019	0,335
89,250	0,019	0,336
89,300	0,019	0,339
89,350	0,019	0,340
89,400	0,020	0,344
89,450	0,019	0,344
89,500	0,020	0,347
89,550	0,020	0,348
89,600	0,020	0,351
89,650	0,021	0,353
89,700	0,021	0,357
89,750	0,021	0,358
89,800	0,021	0,362
89,850	0,021	0,364
89,900	0,022	0,368
89,950	0,022	0,370
90,000	0,022	0,373
90,050	0,022	0,376
90,100	0,022	0,380
90,150	0,023	0,382
90,200	0,023	0,387
90,250	0,023	0,388
90,300	0,023	0,392
90,350	0,023	0,394
90,400	0,024	0,398
90,450	0,024	0,400
90,500	0,024	0,404
90,550	0,024	0,406
90,600	0,024	0,410
90,650	0,025	0,412
90,700	0,025	0,417
90,750	0,025	0,419
90,800	0,026	0,424
90,850	0,026	0,427
90,900	0,026	0,431
90,950	0,026	0,434
91,000	0,027	0,439
91,050	0,027	0,443
91,100	0,027	0,447
91,150	0,028	0,450
91,200	0,028	0,456
91,250	0,028	0,459
91,300	0,029	0,464
91,350	0,029	0,466
91,400	0,029	0,471
91,450	0,029	0,474
91,500	0,029	0,479
91,550	0,030	0,481
91,600	0,030	0,486
91,650	0,030	0,489
91,700	0,030	0,493
91,750	0,031	0,496
91,800	0,032	0,502
91,850	0,032	0,506
91,900	0,033	0,512
91,950	0,033	0,516
92,000	0,033	0,522
92,050	0,034	0,526
92,100	0,034	0,531
92,150	0,035	0,535
92,200	0,035	0,541
92,250	0,036	0,546
92,300	0,036	0,551
92,350	0,036	0,555
92,400	0,037	0,561
92,450	0,037	0,565
92,500	0,038	0,571
92,550	0,038	0,575
92,600	0,039	0,581
92,650	0,040	0,586
92,700	0,040	0,592
92,750	0,041	0,596
92,800	0,041	0,603
92,850	0,042	0,606
92,900	0,042	0,613
92,950	0,043	0,616
93,000	0,043	0,622
93,050	0,043	0,625
93,100	0,044	0,630
93,150	0,044	0,634
93,200	0,045	0,639
93,250	0,045	0,642
93,300	0,046	0,647
93,350	0,047	0,651
93,400	0,048	0,657
93,450	0,049	0,662
93,500	0,050	0,668
93,550	0,050	0,672
93,600	0,051	0,677
93,650	0,052	0,681
93,700	0,053	0,687
93,750	0,054	0,691
93,800	0,055	0,696
93,850	0,055	0,700
93,900	0,057	0,706
93,950	0,057	0,709
94,000	0,058	0,714
94,050	0,059	0,717
94,100	0,060	0,722
94,150	0,062	0,726
94,200	0,064	0,732
94,250	0,065	0,737
94,300	0,066	0,742
94,350	0,068	0,746
94,400	0,069	0,752
94,450	0,071	0,756
94,500	0,072	0,761
94,550	0,074	0,765
94,600	0,075	0,771
94,650	0,076	0,774
94,700	0,078	0,779
94,750	0,081	0,783
94,800	0,083	0,788
94,850	0,086	0,793
94,900	0,088	0,799
94,950	0,090	0,803
95,000	0,092	0,808
95,050	0,094	0,811
95,100	0,096	0,816
95,150	0,097	0,819
95,200	0,100	0,824
95,250	0,102	0,827
95,300	0,103	0,830
95,350	0,105	0,832
95,400	0,105	0,836
95,450	0,106	0,836
95,500	0,107	0,839
95,550	0,109	0,840
95,600	0,110	0,843
95,650	0,112	0,844
95,700	0,116	0,848
95,750	0,118	0,851
95,800	0,120	0,855
95,850	0,123	0,857
95,900	0,124	0,860
95,950	0,126	0,861
96,000	0,128	0,864
96,050	0,129	0,865
96,100	0,130	0,867
96,150	0,132	0,868
96,200	0,132	0,870
96,250	0,134	0,870
96,300	0,135	0,873
96,350	0,136	0,872
96,400	0,137	0,875
96,450	0,138	0,874
96,500	0,139	0,876
96,550	0,140	0,876
96,600	0,141	0,878
96,650	0,143	0,879
96,700	0,144	0,880
96,750	0,144	0,880
96,800	0,145	0,882
96,850	0,146	0,882
96,900	0,147	0,884
96,950	0,148	0,883
97,000	0,149	0,886
97,050	0,150	0,886
97,100	0,151	0,887
97,150	0,153	0,887
97,200	0,154	0,889
97,250	0,155	0,889
97,300	0,151	0,890
97,350	0,147	0,888
97,400	0,142	0,888
97,450	0,141	0,887
97,500	0,141	0,888
97,550	0,141	0,887
97,600	0,140	0,888
97,650	0,140	0,887
97,700	0,141	0,888
97,750	0,146	0,888
97,800	0,150	0,889
97,850	0,155	0,890
97,900	0,156	0,891
97,950	0,157	0,891
98,000	0,158	0,892
98,050	0,159	0,892
98,100	0,161	0,894
98,150	0,162	0,894
98,200	0,165	0,896
98,250	0,167	0,897
98,300	0,168	0,899
98,350	0,169	0,899
98,400	0,170	0,900
98,450	0,171	0,900
98,500	0,172	0,901
98,550	0,172	0,901
98,600	0,172	0,902
98,650	0,173	0,902
98,700	0,174	0,903
98,750	0,173	0,902
98,800	0,173	0,903
98,850	0,173	0,902
98,900	0,174	0,903
98,950	0,176	0,903
99,000	0,178	0,905
99,050	0,180	0,905
99,100	0,182	0,907
99,150	0,184	0,907
99,200	0,185	0,909
99,250	0,186	0,909
99,300	0,186	0,910
99,350	0,187	0,909
99,400	0,187	0,911
99,450	0,187	0,910
99,500	0,188	0,911
99,550	0,191	0,911
99,600	0,192	0,913
99,650	0,193	0,912
99,700	0,194	0,914
99,750	0,195	0,914
99,800	0,196	0,915
99,850	0,198	0,915
99,900	0,199	0,916
99,950	0,199	0,916
100,000	0,200	0,917
100,050	0,201	0,916
100,100	0,202	0,918
100,150	0,202	0,917
100,200	0,203	0,918
100,250	0,204	0,918
100,300	0,205	0,919
100,350	0,207	0,919
100,400	0,207	0,920
100,450	0,208	0,920
100,500	0,209	0,921
100,550	0,210	0,920
100,600	0,210	0,921
100,650	0,210	0,921
100,700	0,211	0,922
100,750	0,211	0,921
100,800	0,211	0,922
100,850	0,212	0,921
100,900	0,211	0,922
100,950	0,212	0,921
101,000	0,212	0,922
101,050	0,212	0,921
101,100	0,212	0,922
101,150	0,213	0,921
101,200	0,215	0,923
101,250	0,216	0,923
101,300	0,217	0,924
101,350	0,217	0,923
101,400	0,217	0,924
101,450	0,219	0,924
101,500	0,221	0,926
101,550	0,222	0,925
101,600	0,223	0,926
101,650	0,224	0,926
101,700	0,225	0,927
101,750	0,225	0,926
101,800	0,226	0,928
101,850	0,227	0,927
101,900	0,228	0,928
101,950	0,229	0,928
102,000	0,230	0,929
102,050	0,231	0,929
102,100	0,232	0,930
102,150	0,233	0,929
102,200	0,234	0,931
102,250	0,236	0,930
102,300	0,238	0,932
102,350	0,239	0,931
102,400	0,240	0,933
102,450	0,241	0,932
102,500	0,242	0,933
102,550	0,242	0,932
102,600	0,242	0,933
102,650	0,243	0,933
102,700	0,243	0,934
102,750	0,243	0,933
102,800	0,244	0,934
102,850	0,245	0,933
102,900	0,248	0,935
102,950	0,252	0,935
103,000	0,255	0,937
103,050	0,257	0,937
103,100	0,257	0,938
103,150	0,259	0,938
103,200	0,263	0,939
103,250	0,266	0,939
103,300	0,269	0,941
103,350	0,271	0,941
103,400	0,272	0,942
103,450	0,273	0,941
103,500	0,273	0,942
103,550	0,274	0,941
103,600	0,274	0,942
103,650	0,274	0,941
103,700	0,276	0,943
103,750	0,279	0,942
103,800	0,284	0,944
103,850	0,287	0,944
103,900	0,291	0,946
103,950	0,295	0,946
104,000	0,300	0,948
104,050	0,302	0,948
104,100	0,304	0,949
104,150	0,305	0,948
104,200	0,306	0,950
104,250	0,307	0,949
104,300	0,308	0,950
104,350	0,309	0,949
104,400	0,309	0,950
104,450	0,310	0,949
104,500	0,311	0,951
104,550	0,314	0,950
104,600	0,317	0,952
104,650	0,319	0,951
104,700	0,322	0,953
104,750	0,324	0,952
104,800	0,326	0,954
104,850	0,328	0,953
104,900	0,328	0,954
104,950	0,329	0,953
105,000	0,329	0,955
105,050	0,330	0,953
105,100	0,331	0,955
105,150	0,331	0,954
105,200	0,331	0,955
105,250	0,331	0,954
105,300	0,332	0,955
105,350	0,332	0,954
105,400	0,332	0,955
105,450	0,332	0,954
105,500	0,333	0,955
105,550	0,335	0,954
105,600	0,336	0,955
105,650	0,338	0,955
105,700	0,338	0,956
105,750	0,340	0,955
105,800	0,343	0,957
105,850	0,344	0,956
105,900	0,344	0,957
105,950	0,345	0,956
106,000	0,345	0,957
106,050	0,345	0,956
106,100	0,346	0,957
106,150	0,347	0,956
106,200	0,347	0,958
106,250	0,349	0,957
106,300	0,350	0,958
106,350	0,352	0,957
106,400	0,352	0,959
106,450	0,352	0,957
106,500	0,352	0,958
106,550	0,352	0,957
106,600	0,352	0,959
106,650	0,353	0,957
106,700	0,353	0,959
106,750	0,353	0,957
106,800	0,353	0,959
106,850	0,352	0,957
106,900	0,352	0,959
106,950	0,354	0,958
107,000	0,355	0,959
107,050	0,357	0,958
107,100	0,358	0,960
107,150	0,358	0,959
107,200	0,361	0,960
107,250	0,365	0,960
107,300	0,368	0,961
107,350	0,369	0,960
107,400	0,370	0,962
107,450	0,370	0,960
107,500	0,370	0,962
107,550	0,368	0,960
107,600	0,366	0,961
107,650	0,365	0,960
107,700	0,367	0,962
107,750	0,366	0,960
107,800	0,365	0,961
107,850	0,364	0,960
107,900	0,362	0,961
107,950	0,361	0,960
108,000	0,362	0,961
108,050	0,371	0,960
108,100	0,375	0,962
108,150	0,377	0,961
108,200	0,378	0,963
108,250	0,379	0,962
108,300	0,381	0,963
108,350	0,383	0,962
108,400	0,385	0,964
108,450	0,386	0,963
108,500	0,388	0,964
108,550	0,393	0,964
108,600	0,399	0,966
108,650	0,402	0,965
108,700	0,404	0,967
108,750	0,404	0,965
108,800	0,404	0,967
108,850	0,404	0,965
108,900	0,404	0,966
108,950	0,404	0,965
109,000	0,405	0,967
109,050	0,405	0,965
109,100	0,404	0,967
109,150	0,407	0,966
109,200	0,413	0,968
109,250	0,418	0,967
109,300	0,422	0,969
109,350	0,425	0,968
109,400	0,427	0,969
109,450	0,429	0,969
109,500	0,430	0,970
109,550	0,430	0,969
109,600	0,431	0,970
109,650	0,431	0,969
109,700	0,431	0,970
109,750	0,431	0,969
109,800	0,431	0,970
109,850	0,432	0,969
109,900	0,435	0,971
109,950	0,438	0,970
110,000	0,440	0,971
110,050	0,442	0,970
110,100	0,443	0,971
110,150	0,444	0,971
110,200	0,444	0,972
110,250	0,445	0,971
110,300	0,445	0,972
110,350	0,445	0,971
110,400	0,445	0,972
110,450	0,446	0,971
110,500	0,449	0,972
110,550	0,451	0,972
110,600	0,453	0,973
110,650	0,455	0,972
110,700	0,455	0,973
110,750	0,456	0,972
110,800	0,458	0,974
110,850	0,460	0,972
110,900	0,461	0,974
110,950	0,461	0,973
111,000	0,461	0,974
111,050	0,461	0,973
111,100	0,461	0,974
111,150	0,462	0,973
111,200	0,461	0,973
111,250	0,462	0,973
111,300	0,462	0,974
111,350	0,464	0,973
111,400	0,467	0,974
111,450	0,469	0,974
111,500	0,471	0,975
111,550	0,473	0,974
111,600	0,474	0,975
111,650	0,475	0,974
111,700	0,477	0,975
111,750	0,478	0,975
111,800	0,478	0,976
111,850	0,478	0,975
111,900	0,478	0,976
111,950	0,479	0,975
112,000	0,479	0,976
112,050	0,479	0,975
112,100	0,479	0,976
112,150	0,479	0,975
112,200	0,480	0,976
112,250	0,483	0,975
112,300	0,484	0,976
112,350	0,485	0,975
112,400	0,487	0,977
112,450	0,488	0,975
112,500	0,490	0,977
112,550	0,493	0,976
112,600	0,496	0,977
112,650	0,498	0,977
112,700	0,498	0,978
112,750	0,498	0,977
112,800	0,498	0,978
112,850	0,499	0,977
112,900	0,499	0,978
112,950	0,498	0,977
113,000	0,499	0,978
113,050	0,499	0,977
113,100	0,499	0,978
113,150	0,499	0,977
113,200	0,499	0,978
113,250	0,499	0,977
113,300	0,500	0,978
113,350	0,505	0,977
113,400	0,507	0,978
113,450	0,508	0,978
113,500	0,509	0,979
113,550	0,511	0,978
113,600	0,514	0,979
113,650	0,518	0,979
113,700	0,520	0,980
113,750	0,521	0,979
113,800	0,522	0,980
113,850	0,522	0,979
113,900	0,522	0,980
113,950	0,522	0,979
114,000	0,523	0,980
114,050	0,523	0,979
114,100	0,523	0,980
114,150	0,523	0,979
114,200	0,523	0,980
114,250	0,523	0,979
114,300	0,523	0,980
114,350	0,523	0,979
114,400	0,527	0,981
114,450	0,533	0,980
114,500	0,537	0,981
114,550	0,539	0,981
114,600	0,542	0,982
114,650	0,545	0,982
114,700	0,548	0,982
114,750	0,552	0,982
114,800	0,554	0,983
114,850	0,556	0,982
114,900	0,557	0,984
114,950	0,556	0,982
115,000	0,553	0,983
115,050	0,553	0,983
115,100	0,553	0,983
115,150	0,553	0,982
115,200	0,558	0,984
115,250	0,562	0,983
115,300	0,565	0,984
115,350	0,567	0,983
115,400	0,568	0,985
115,450	0,568	0,984
115,500	0,569	0,985
115,550	0,569	0,983
115,600	0,570	0,985
115,650	0,571	0,984
115,700	0,571	0,985
115,750	0,571	0,984
115,800	0,571	0,985
115,850	0,572	0,984
115,900	0,575	0,985
115,950	0,578	0,984
116,000	0,580	0,985
116,050	0,582	0,985
116,100	0,582	0,986
116,150	0,584	0,985
116,200	0,586	0,986
116,250	0,587	0,985
116,300	0,589	0,986
116,350	0,591	0,986
116,400	0,591	0,986
116,450	0,592	0,985
116,500	0,592	0,987
116,550	0,592	0,986
116,600	0,592	0,986
116,650	0,593	0,986
116,700	0,592	0,986
116,750	0,593	0,986
116,800	0,593	0,987
116,850	0,593	0,986
116,900	0,593	0,987
116,950	0,593	0,985
117,000	0,595	0,987
117,050	0,598	0,986
117,100	0,599	0,987
117,150	0,601	0,986
117,200	0,602	0,987
117,250	0,603	0,986
117,300	0,608	0,988
117,350	0,611	0,987
117,400	0,612	0,988
117,450	0,612	0,987
117,500	0,612	0,988
117,550	0,612	0,987
117,600	0,613	0,988
117,650	0,615	0,987
117,700	0,620	0,989
117,750	0,622	0,988
117,800	0,622	0,989
117,850	0,623	0,988
117,900	0,623	0,989
117,950	0,623	0,988
118,000	0,623	0,989
118,050	0,623	0,988
118,100	0,623	0,989
118,150	0,623	0,988
118,200	0,624	0,989
118,250	0,625	0,988
118,300	0,630	0,990
118,350	0,635	0,989
118,400	0,640	0,991
118,450	0,643	0,990
118,500	0,645	0,991
118,550	0,647	0,990
118,600	0,650	0,991
118,650	0,653	0,991
118,700	0,654	0,991
118,750	0,656	0,991
118,800	0,656	0,991
118,850	0,656	0,990
118,900	0,656	0,992
118,950	0,656	0,991
119,000	0,657	0,992
119,050	0,658	0,991
119,100	0,662	0,992
119,150	0,669	0,992
119,200	0,673	0,993
119,250	0,676	0,992
119,300	0,679	0,993
119,350	0,682	0,992
119,400	0,684	0,994
119,450	0,686	0,993
119,500	0,688	0,994
119,550	0,690	0,993
119,600	0,690	0,994
119,650	0,690	0,993
119,700	0,690	0,994
119,750	0,690	0,993
119,800	0,690	0,994
119,850	0,690	0,993
119,900	0,690	0,994
119,950	0,693	0,993
120,000	0,696	0,995
120,050	0,698	0,994
120,100	0,700	0,995
120,150	0,701	0,994
120,200	0,703	0,995
120,250	0,704	0,994
120,300	0,705	0,995
120,350	0,707	0,994
120,400	0,709	0,996
120,450	0,713	0,995
120,500	0,717	0,996
120,550	0,718	0,995
120,600	0,718	0,996
120,650	0,718	0,995
120,700	0,719	0,996
120,750	0,719	0,995
120,800	0,719	0,996
120,850	0,720	0,995
120,900	0,719	0,996
120,950	0,720	0,995
121,000	0,720	0,996
121,050	0,721	0,995
121,100	0,726	0,996
121,150	0,728	0,996
121,200	0,728	0,997
121,250	0,730	0,996
121,300	0,736	0,997
121,350	0,740	0,996
121,400	0,742	0,998
121,450	0,745	0,997
121,500	0,750	0,998
121,550	0,754	0,998
121,600	0,757	0,999
121,650	0,761	0,998
121,700	0,763	0,999
121,750	0,762	0,998
121,800	0,762	0,999
121,850	0,762	0,998
121,900	0,762	0,999
121,950	0,761	0,998
122,000	0,761	0,999
122,050	0,762	0,998
122,100	0,764	0,999
122,150	0,769	0,998
122,200	0,771	1,000
122,250	0,772	0,999
122,300	0,774	1,000
122,350	0,777	0,999
122,400	0,779	1,000
122,450	0,780	0,999
122,500	0,782	1,000
122,550	0,784	1,000
122,600	0,785	1,000
122,650	0,786	0,999
122,700	0,789	1,001
122,750	0,793	1,000
122,800	0,794	1,001
122,850	0,795	1,000
122,900	0,795	1,001
122,950	0,795	1,000
123,000	0,795	1,001
123,050	0,796	1,000
123,100	0,796	1,001
123,150	0,795	1,000
123,200	0,797	1,001
123,250	0,799	1,000
123,300	0,800	1,002
123,350	0,802	1,001
123,400	0,805	1,002
123,450	0,807	1,001
123,500	0,809	1,002
123,550	0,810	1,001
123,600	0,810	1,002
123,650	0,812	1,001
123,700	0,813	1,002
123,750	0,814	1,001
123,800	0,816	1,003
123,850	0,817	1,001
123,900	0,818	1,003
123,950	0,819	1,002
124,000	0,820	1,003
124,050	0,821	1,002
124,100	0,823	1,003
124,150	0,824	1,002
124,200	0,825	1,003
124,250	0,825	1,002
124,300	0,825	1,003
124,350	0,825	1,002
124,400	0,825	1,003
124,450	0,825	1,002
124,500	0,825	1,003
124,550	0,826	1,002
124,600	0,826	1,003
124,650	0,826	1,002
124,700	0,826	1,003
124,750	0,826	1,002
124,800	0,828	1,003
124,850	0,830	1,002
124,900	0,832	1,004
124,950	0,834	1,002
125,000	0,838	1,004
125,050	0,840	1,002
125,100	0,840	1,004
125,150	0,841	1,003
125,200	0,841	1,004
125,250	0,841	1,003
125,300	0,841	1,004
125,350	0,842	1,003
125,400	0,845	1,004
125,450	0,847	1,003
125,500	0,847	1,004
125,550	0,847	1,003
125,600	0,848	1,004
125,650	0,848	1,003
125,700	0,848	1,004
125,750	0,848	1,003
125,800	0,848	1,004
125,850	0,848	1,003
125,900	0,847	1,004
125,950	0,847	1,003
126,000	0,847	1,004
126,050	0,850	1,003
126,100	0,856	1,005
126,150	0,857	1,003
126,200	0,858	1,005
126,250	0,858	1,004
126,300	0,858	1,005
126,350	0,861	1,004
126,400	0,865	1,005
126,450	0,869	1,004
126,500	0,872	1,006
126,550	0,874	1,005
126,600	0,875	1,006
126,650	0,875	1,005
126,700	0,875	1,006
126,750	0,876	1,005
126,800	0,875	1,006
126,850	0,876	1,005
126,900	0,876	1,006
126,950	0,876	1,005
127,000	0,879	1,006
127,050	0,885	1,005
127,100	0,888	1,007
127,150	0,891	1,005
127,200	0,892	1,007
127,250	0,892	1,006
127,300	0,893	1,007
127,350	0,892	1,006
127,400	0,893	1,007
127,450	0,893	1,006
127,500	0,894	1,007
127,550	0,897	1,006
127,600	0,900	1,007
127,650	0,903	1,006
127,700	0,907	1,008
127,750	0,910	1,006
127,800	0,913	1,008
127,850	0,915	1,007
127,900	0,917	1,008
127,950	0,918	1,007
128,000	0,918	1,008
128,050	0,918	1,007
128,100	0,919	1,008
128,150	0,918	1,007
128,200	0,919	1,009
128,250	0,921	1,007
128,300	0,923	1,009
128,350	0,926	1,008
128,400	0,929	1,009
128,450	0,930	1,007
128,500	0,932	1,009
128,550	0,932	1,007
128,600	0,934	1,009
128,650	0,935	1,008
128,700	0,937	1,009
128,750	0,938	1,008
128,800	0,939	1,009
128,850	0,939	1,008
128,900	0,939	1,009
128,950	0,939	1,008
129,000	0,940	1,010
129,050	0,945	1,009
129,100	0,946	1,010
129,150	0,946	1,009
129,200	0,949	1,010
129,250	0,950	1,009
129,300	0,951	1,010
129,350	0,953	1,009
129,400	0,956	1,010
129,450	0,960	1,010
129,500	0,962	1,011
129,550	0,962	1,009
129,600	0,964	1,011
129,650	0,972	1,010
129,700	0,976	1,012
129,750	0,977	1,010
129,800	0,978	1,012
129,850	0,978	1,010
129,900	0,978	1,012
129,950	0,978	1,010
130,000	0,978	1,012
130,050	0,978	1,010
130,100	0,978	1,011
130,150	0,978	1,010
130,200	0,978	1,012
130,250	0,978	1,011
130,300	0,978	1,012
130,350	0,979	1,010
130,400	0,983	1,012
130,450	0,987	1,011
130,500	0,988	1,012
130,550	0,988	1,011
130,600	0,990	1,012
130,650	0,993	1,011
130,700	0,995	1,012
130,750	0,998	1,012
130,800	0,999	1,012
130,850	1,002	1,012
130,900	1,002	1,013
130,950	1,002	1,012
131,000	1,002	1,013
131,050	1,002	1,011
131,100	1,002	1,013
131,150	1,002	1,011
131,200	1,002	1,013
131,250	1,002	1,012
131,300	1,002	1,013
131,350	1,002	1,012
131,400	1,002	1,013
131,450	1,001	1,011
131,500	1,002	1,013
131,550	1,001	1,011
131,600	1,002	1,013
131,650	1,002	1,011
131,700	1,002	1,013
131,750	1,001	1,011
131,800	1,001	1,013
131,850	1,000	1,011
131,900	0,999	1,013
131,950	0,999	1,012
132,000	0,997	1,012
132,050	0,995	1,011
132,100	0,995	1,012
132,150	0,994	1,011
132,200	0,993	1,012
132,250	0,993	1,011
132,300	0,993	1,012
132,350	0,992	1,011
132,400	0,993	1,012
132,450	0,992	1,011
132,500	0,992	1,012
132,550	0,992	1,011
132,600	0,992	1,012
132,650	0,992	1,011
132,700	0,992	1,012
132,750	0,990	1,011
132,800	0,988	1,012
132,850	0,987	1,011
132,900	0,987	1,012
132,950	0,986	1,011
133,000	0,985	1,012
133,050	0,984	1,011
133,100	0,983	1,012
133,150	0,981	1,011
133,200	0,979	1,012
133,250	0,976	1,010
133,300	0,973	1,012
133,350	0,970	1,010
133,400	0,969	1,011
133,450	0,969	1,010
133,500	0,969	1,011
133,550	0,969	1,010
133,600	0,969	1,011
133,650	0,969	1,010
133,700	0,969	1,011
133,750	0,969	1,010
133,800	0,969	1,011
133,850	0,969	1,010
133,900	0,969	1,011
133,950	0,967	1,010
134,000	0,963	1,011
134,050	0,961	1,010
134,100	0,961	1,011
134,150	0,961	1,010
134,200	0,959	1,011
134,250	0,957	1,010
134,300	0,958	1,011
134,350	0,955	1,009
134,400	0,954	1,011
134,450	0,954	1,009
134,500	0,954	1,011
134,550	0,954	1,009
134,600	0,954	1,011
134,650	0,954	1,009
134,700	0,954	1,010
134,750	0,954	1,010
134,800	0,954	1,011
134,850	0,954	1,009
134,900	0,954	1,011
134,950	0,954	1,009
135,000	0,945	1,010
135,050	0,940	1,009
135,100	0,939	1,010
135,150	0,939	1,009
135,200	0,939	1,010
135,250	0,939	1,009
135,300	0,939	1,010
135,350	0,938	1,009
135,400	0,937	1,010
135,450	0,936	1,008
135,500	0,935	1,010
135,550	0,933	1,009
135,600	0,931	1,009
135,650	0,929	1,009
135,700	0,928	1,010
135,750	0,928	1,009
135,800	0,928	1,009
135,850	0,928	1,009
135,900	0,928	1,009
135,950	0,928	1,009
136,000	0,928	1,010
136,050	0,929	1,009
136,100	0,925	1,009
136,150	0,921	1,008
136,200	0,918	1,009
136,250	0,915	1,008
136,300	0,912	1,009
136,350	0,911	1,007
136,400	0,910	1,009
136,450	0,910	1,008
136,500	0,908	1,009
136,550	0,907	1,007
136,600	0,905	1,008
136,650	0,904	1,007
136,700	0,902	1,009
136,750	0,899	1,007
136,800	0,897	1,008
136,850	0,897	1,007
136,900	0,897	1,008
136,950	0,897	1,007
137,000	0,896	1,008
137,050	0,896	1,007
137,100	0,897	1,008
137,150	0,896	1,007
137,200	0,897	1,008
137,250	0,896	1,007
137,300	0,895	1,008
137,350	0,890	1,007
137,400	0,888	1,008
137,450	0,887	1,007
137,500	0,886	1,008
137,550	0,885	1,006
137,600	0,884	1,008
137,650	0,882	1,006
137,700	0,879	1,007
137,750	0,878	1,006
137,800	0,877	1,007
137,850	0,875	1,006
137,900	0,873	1,007
137,950	0,873	1,006
138,000	0,873	1,007
138,050	0,873	1,006
138,100	0,873	1,007
138,150	0,873	1,006
138,200	0,873	1,007
138,250	0,873	1,006
138,300	0,873	1,007
138,350	0,873	1,006
138,400	0,873	1,007
138,450	0,870	1,006
138,500	0,868	1,007
138,550	0,866	1,005
138,600	0,866	1,006
138,650	0,865	1,005
138,700	0,864	1,007
138,750	0,863	1,005
138,800	0,862	1,007
138,850	0,860	1,005
138,900	0,859	1,006
138,950	0,858	1,005
139,000	0,857	1,006
139,050	0,856	1,005
139,100	0,856	1,006
139,150	0,856	1,005
139,200	0,854	1,006
139,250	0,853	1,005
139,300	0,854	1,006
139,350	0,852	1,005
139,400	0,851	1,006
139,450	0,851	1,005
139,500	0,851	1,006
139,550	0,850	1,005
139,600	0,850	1,006
139,650	0,849	1,005
139,700	0,849	1,006
139,750	0,850	1,005
139,800	0,849	1,006
139,850	0,849	1,005
139,900	0,849	1,006
139,950	0,850	1,005
140,000	0,850	1,006
140,050	0,849	1,005
140,100	0,850	1,006
140,150	0,849	1,005
140,200	0,849	1,006
140,250	0,850	1,005
140,300	0,850	1,006
140,350	0,849	1,005
140,400	0,850	1,006
140,450	0,849	1,005
140,500	0,848	1,006
140,550	0,846	1,005
140,600	0,846	1,006
140,650	0,845	1,005
140,700	0,845	1,006
140,750	0,845	1,005
140,800	0,843	1,006
140,850	0,841	1,004
140,900	0,840	1,006
140,950	0,839	1,004
141,000	0,838	1,006
141,050	0,836	1,004
141,100	0,832	1,005
141,150	0,827	1,004
141,200	0,826	1,005
141,250	0,826	1,004
141,300	0,826	1,005
141,350	0,825	1,004
141,400	0,826	1,005
141,450	0,826	1,004
141,500	0,826	1,005
141,550	0,826	1,004
141,600	0,826	1,005
141,650	0,825	1,004
141,700	0,825	1,005
141,750	0,824	1,004
141,800	0,824	1,005
141,850	0,824	1,004
141,900	0,823	1,005
141,950	0,823	1,003
142,000	0,823	1,005
142,050	0,823	1,004
142,100	0,822	1,004
142,150	0,823	1,003
142,200	0,823	1,005
142,250	0,823	1,003
142,300	0,822	1,005
142,350	0,821	1,003
142,400	0,819	1,004
142,450	0,818	1,003
142,500	0,816	1,004
142,550	0,815	1,003
142,600	0,815	1,004
142,650	0,813	1,003
142,700	0,811	1,004
142,750	0,809	1,003
142,800	0,808	1,004
142,850	0,806	1,002
142,900	0,806	1,004
142,950	0,806	1,003
143,000	0,806	1,004
143,050	0,806	1,003
143,100	0,805	1,004
143,150	0,805	1,003
143,200	0,805	1,004
143,250	0,806	1,003
143,300	0,806	1,004
143,350	0,804	1,003
143,400	0,799	1,004
143,450	0,795	1,002
143,500	0,794	1,003
143,550	0,792	1,002
143,600	0,792	1,003
143,650	0,791	1,002
143,700	0,791	1,003
143,750	0,790	1,002
143,800	0,790	1,003
143,850	0,789	1,002
143,900	0,788	1,003
143,950	0,787	1,002
144,000	0,786	1,003
144,050	0,785	1,002
144,100	0,783	1,003
144,150	0,781	1,001
144,200	0,779	1,002
144,250	0,779	1,002
144,300	0,778	1,002
144,350	0,777	1,001
144,400	0,777	1,002
144,450	0,777	1,001
144,500	0,777	1,003
144,550	0,777	1,001
144,600	0,777	1,002
144,650	0,777	1,001
144,700	0,776	1,003
144,750	0,773	1,001
144,800	0,770	1,002
144,850	0,769	1,001
144,900	0,768	1,002
144,950	0,766	1,001
145,000	0,765	1,002
145,050	0,763	1,001
145,100	0,759	1,001
145,150	0,758	1,000
145,200	0,758	1,002
145,250	0,758	1,001
145,300	0,758	1,002
145,350	0,758	1,000
145,400	0,758	1,002
145,450	0,757	1,001
145,500	0,754	1,001
145,550	0,751	1,000
145,600	0,750	1,001
145,650	0,749	1,000
145,700	0,750	1,001
145,750	0,750	1,000
145,800	0,750	1,001
145,850	0,750	1,000
145,900	0,749	1,001
145,950	0,749	1,000
146,000	0,749	1,001
146,050	0,750	1,000
146,100	0,749	1,001
146,150	0,749	1,000
146,200	0,750	1,001
146,250	0,750	1,000
146,300	0,747	1,001
146,350	0,745	1,000
146,400	0,745	1,001
146,450	0,745	1,000
146,500	0,745	1,001
146,550	0,745	1,000
146,600	0,744	1,001
146,650	0,742	1,000
146,700	0,742	1,001
146,750	0,742	1,000
146,800	0,740	1,001
146,850	0,739	0,999
146,900	0,738	1,000
146,950	0,738	0,999
147,000	0,738	1,001
147,050	0,739	0,999
147,100	0,737	1,000
147,150	0,735	1,000
147,200	0,734	1,000
147,250	0,734	0,999
147,300	0,732	1,000
147,350	0,729	0,999
147,400	0,725	1,000
147,450	0,725	0,999
147,500	0,724	1,000
147,550	0,721	0,999
147,600	0,718	1,000
147,650	0,716	0,998
147,700	0,714	0,999
147,750	0,711	0,998
147,800	0,708	0,999
147,850	0,705	0,998
147,900	0,703	0,999
147,950	0,703	0,998
148,000	0,703	0,999
148,050	0,703	0,998
148,100	0,703	0,999
148,150	0,703	0,997
148,200	0,703	0,999
148,250	0,703	0,997
148,300	0,703	0,999
148,350	0,703	0,997
148,400	0,703	0,999
148,450	0,703	0,997
148,500	0,703	0,999
148,550	0,703	0,998
148,600	0,703	0,999
148,650	0,703	0,997
148,700	0,703	0,999
148,750	0,703	0,997
148,800	0,703	0,999
148,850	0,703	0,998
148,900	0,703	0,999
148,950	0,703	0,998
149,000	0,703	0,998
149,050	0,701	0,998
149,100	0,688	0,998
149,150	0,686	0,997
149,200	0,685	0,998
149,250	0,685	0,997
149,300	0,684	0,998
149,350	0,682	0,997
149,400	0,682	0,998
149,450	0,681	0,997
149,500	0,681	0,998
149,550	0,681	0,996
149,600	0,681	0,997
149,650	0,681	0,996
149,700	0,681	0,998
149,750	0,681	0,996
149,800	0,681	0,997
149,850	0,681	0,996
149,900	0,681	0,998
149,950	0,680	0,996
150,000	0,680	0,998
150,050	0,679	0,996
150,100	0,678	0,997
150,150	0,678	0,996
150,200	0,677	0,997
150,250	0,675	0,996
150,300	0,674	0,997
150,350	0,673	0,996
150,400	0,671	0,997
150,450	0,670	0,996
150,500	0,669	0,997
150,550	0,668	0,996
150,600	0,667	0,997
150,650	0,668	0,996
150,700	0,667	0,997
150,750	0,667	0,996
150,800	0,667	0,996
150,850	0,667	0,996
150,900	0,667	0,997
150,950	0,667	0,996
151,000	0,667	0,997
151,050	0,667	0,995
151,100	0,667	0,997
151,150	0,667	0,996
151,200	0,665	0,997
151,250	0,663	0,995
151,300	0,661	0,997
151,350	0,660	0,995
151,400	0,659	0,996
151,450	0,659	0,995
151,500	0,658	0,996
151,550	0,657	0,995
151,600	0,657	0,996
151,650	0,657	0,995
151,700	0,656	0,996
151,750	0,655	0,995
151,800	0,654	0,996
151,850	0,654	0,995
151,900	0,653	0,996
151,950	0,652	0,995
152,000	0,652	0,996
152,050	0,651	0,995
152,100	0,651	0,996
152,150	0,651	0,995
152,200	0,650	0,996
152,250	0,651	0,995
152,300	0,650	0,996
152,350	0,650	0,995
152,400	0,650	0,996
152,450	0,650	0,995
152,500	0,650	0,996
152,550	0,650	0,994
152,600	0,650	0,996
152,650	0,647	0,995
152,700	0,645	0,996
152,750	0,644	0,994
152,800	0,644	0,996
152,850	0,644	0,995
152,900	0,644	0,995
152,950	0,644	0,995
153,000	0,642	0,995
153,050	0,641	0,994
153,100	0,641	0,995
153,150	0,641	0,994
153,200	0,640	0,995
153,250	0,637	0,994
153,300	0,636	0,995
153,350	0,636	0,994
153,400	0,636	0,995
153,450	0,636	0,994
153,500	0,636	0,995
153,550	0,636	0,994
153,600	0,635	0,995
153,650	0,634	0,994
153,700	0,634	0,995
153,750	0,634	0,994
153,800	0,632	0,995
153,850	0,631	0,994
153,900	0,630	0,995
153,950	0,630	0,994
154,000	0,630	0,995
154,050	0,630	0,994
154,100	0,630	0,995
154,150	0,631	0,994
154,200	0,631	0,995
154,250	0,630	0,994
154,300	0,630	0,995
154,350	0,630	0,993
154,400	0,631	0,995
154,450	0,630	0,994
154,500	0,629	0,995
154,550	0,629	0,994
154,600	0,629	0,995
154,650	0,629	0,993
154,700	0,629	0,995
154,750	0,628	0,993
154,800	0,627	0,995
154,850	0,627	0,994
154,900	0,627	0,995
154,950	0,627	0,994
155,000	0,626	0,994
155,050	0,625	0,993
155,100	0,625	0,994
155,150	0,625	0,994
155,200	0,623	0,994
155,250	0,622	0,993
155,300	0,622	0,994
155,350	0,622	0,993
155,400	0,622	0,994
155,450	0,622	0,993
155,500	0,622	0,994
155,550	0,622	0,993
155,600	0,620	0,994
155,650	0,617	0,993
155,700	0,617	0,994
155,750	0,617	0,993
155,800	0,616	0,994
155,850	0,617	0,993
155,900	0,614	0,994
155,950	0,611	0,993
156,000	0,609	0,993
156,050	0,609	0,992
156,100	0,609	0,993
156,150	0,609	0,993
156,200	0,608	0,993
156,250	0,609	0,993
156,300	0,608	0,993
156,350	0,608	0,992
156,400	0,609	0,994
156,450	0,609	0,992
156,500	0,608	0,993
156,550	0,609	0,992
156,600	0,609	0,994
156,650	0,606	0,992
156,700	0,602	0,993
156,750	0,600	0,992
156,800	0,599	0,993
156,850	0,599	0,992
156,900	0,599	0,993
156,950	0,599	0,992
157,000	0,597	0,993
157,050	0,595	0,992
157,100	0,595	0,992
157,150	0,594	0,991
157,200	0,591	0,993
157,250	0,587	0,991
157,300	0,583	0,992
157,350	0,582	0,991
157,400	0,582	0,992
157,450	0,582	0,991
157,500	0,582	0,992
157,550	0,582	0,991
157,600	0,580	0,992
157,650	0,574	0,990
157,700	0,567	0,991
157,750	0,564	0,990
157,800	0,563	0,991
157,850	0,564	0,990
157,900	0,564	0,991
157,950	0,564	0,990
158,000	0,564	0,991
158,050	0,564	0,990
158,100	0,563	0,991
158,150	0,564	0,990
158,200	0,564	0,991
158,250	0,563	0,989
158,300	0,563	0,991
158,350	0,564	0,990
158,400	0,562	0,991
158,450	0,557	0,989
158,500	0,553	0,990
158,550	0,552	0,989
158,600	0,551	0,990
158,650	0,551	0,989
158,700	0,551	0,990
158,750	0,551	0,989
158,800	0,550	0,990
158,850	0,549	0,989
158,900	0,548	0,990
158,950	0,546	0,989
159,000	0,546	0,990
159,050	0,545	0,989
159,100	0,543	0,989
159,150	0,542	0,988
159,200	0,541	0,989
159,250	0,540	0,988
159,300	0,539	0,989
159,350	0,538	0,988
159,400	0,538	0,989
159,450	0,538	0,988
159,500	0,538	0,989
159,550	0,536	0,988
159,600	0,535	0,989
159,650	0,534	0,988
159,700	0,534	0,989
159,750	0,531	0,987
159,800	0,528	0,988
159,850	0,525	0,987
159,900	0,523	0,988
159,950	0,523	0,987
160,000	0,523	0,988
160,050	0,523	0,987
160,100	0,523	0,988
160,150	0,523	0,987
160,200	0,523	0,988
160,250	0,523	0,987
160,300	0,523	0,988
160,350	0,523	0,987
160,400	0,523	0,988
160,450	0,523	0,987
160,500	0,523	0,988
160,550	0,523	0,987
160,600	0,523	0,988
160,650	0,523	0,987
160,700	0,523	0,988
160,750	0,523	0,987
160,800	0,520	0,988
160,850	0,519	0,987
160,900	0,518	0,988
160,950	0,518	0,987
161,000	0,516	0,988
161,050	0,513	0,986
161,100	0,512	0,987
161,150	0,512	0,986
161,200	0,511	0,987
161,250	0,509	0,986
161,300	0,508	0,987
161,350	0,507	0,986
161,400	0,506	0,987
161,450	0,504	0,986
161,500	0,502	0,987
161,550	0,501	0,986
161,600	0,502	0,987
161,650	0,502	0,986
161,700	0,501	0,987
161,750	0,502	0,986
161,800	0,501	0,987
161,850	0,502	0,986
161,900	0,501	0,987
161,950	0,502	0,986
162,000	0,502	0,987
162,050	0,501	0,985
162,100	0,502	0,987
162,150	0,501	0,986
162,200	0,502	0,987
162,250	0,502	0,986
162,300	0,501	0,987
162,350	0,500	0,985
162,400	0,495	0,986
162,450	0,491	0,985
162,500	0,490	0,986
162,550	0,490	0,985
162,600	0,490	0,986
162,650	0,490	0,985
162,700	0,490	0,986
162,750	0,489	0,985
162,800	0,490	0,986
162,850	0,493	0,985
162,900	0,485	0,986
162,950	0,483	0,984
163,000	0,482	0,986
163,050	0,481	0,984
163,100	0,480	0,985
163,150	0,478	0,984
163,200	0,478	0,985
163,250	0,477	0,984
163,300	0,476	0,985
163,350	0,475	0,984
163,400	0,473	0,985
163,450	0,472	0,983
163,500	0,470	0,985
163,550	0,469	0,983
163,600	0,469	0,984
163,650	0,469	0,984
163,700	0,469	0,985
163,750	0,469	0,983
163,800	0,469	0,985
163,850	0,469	0,984
163,900	0,469	0,985
163,950	0,469	0,983
164,000	0,469	0,984
164,050	0,469	0,983
164,100	0,469	0,984
164,150	0,469	0,983
164,200	0,467	0,984
164,250	0,466	0,983
164,300	0,464	0,984
164,350	0,463	0,983
164,400	0,462	0,984
164,450	0,461	0,983
164,500	0,459	0,984
164,550	0,457	0,983
164,600	0,455	0,984
164,650	0,454	0,982
164,700	0,453	0,983
164,750	0,453	0,982
164,800	0,453	0,983
164,850	0,453	0,982
164,900	0,452	0,983
164,950	0,451	0,982
165,000	0,451	0,983
165,050	0,450	0,982
165,100	0,450	0,983
165,150	0,449	0,982
165,200	0,447	0,983
165,250	0,445	0,982
165,300	0,444	0,983
165,350	0,445	0,982
165,400	0,445	0,983
165,450	0,444	0,982
165,500	0,444	0,983
165,550	0,445	0,982
165,600	0,445	0,983
165,650	0,444	0,982
165,700	0,444	0,982
165,750	0,443	0,982
165,800	0,439	0,982
165,850	0,437	0,981
165,900	0,436	0,982
165,950	0,433	0,981
166,000	0,430	0,981
166,050	0,429	0,981
166,100	0,427	0,981
166,150	0,427	0,980
166,200	0,427	0,981
166,250	0,427	0,980
166,300	0,427	0,981
166,350	0,426	0,980
166,400	0,425	0,981
166,450	0,424	0,980
166,500	0,424	0,981
166,550	0,424	0,980
166,600	0,424	0,981
166,650	0,422	0,980
166,700	0,420	0,981
166,750	0,420	0,980
166,800	0,420	0,981
166,850	0,420	0,979
166,900	0,420	0,981
166,950	0,420	0,980
167,000	0,420	0,981
167,050	0,420	0,980
167,100	0,420	0,981
167,150	0,419	0,979
167,200	0,420	0,981
167,250	0,420	0,980
167,300	0,420	0,981
167,350	0,419	0,979
167,400	0,420	0,981
167,450	0,420	0,980
167,500	0,417	0,981
167,550	0,414	0,979
167,600	0,413	0,980
167,650	0,412	0,979
167,700	0,410	0,980
167,750	0,408	0,979
167,800	0,408	0,980
167,850	0,407	0,978
167,900	0,407	0,980
167,950	0,407	0,978
168,000	0,407	0,980
168,050	0,407	0,978
168,100	0,407	0,979
168,150	0,407	0,978
168,200	0,407	0,980
168,250	0,407	0,978
168,300	0,407	0,980
168,350	0,407	0,978
168,400	0,406	0,979
168,450	0,403	0,978
168,500	0,400	0,979
168,550	0,399	0,978
168,600	0,399	0,979
168,650	0,399	0,978
168,700	0,399	0,979
168,750	0,399	0,978
168,800	0,399	0,979
168,850	0,398	0,978
168,900	0,396	0,979
168,950	0,395	0,977
169,000	0,394	0,979
169,050	0,394	0,977
169,100	0,394	0,979
169,150	0,394	0,977
169,200	0,393	0,978
169,250	0,392	0,977
169,300	0,392	0,978
169,350	0,390	0,977
169,400	0,389	0,978
169,450	0,387	0,977
169,500	0,386	0,978
169,550	0,384	0,977
169,600	0,383	0,978
169,650	0,382	0,976
169,700	0,382	0,978
169,750	0,382	0,976
169,800	0,382	0,978
169,850	0,382	0,976
169,900	0,382	0,977
169,950	0,382	0,976
170,000	0,382	0,977
170,050	0,382	0,976
170,100	0,382	0,977
170,150	0,382	0,976
170,200	0,382	0,977
170,250	0,381	0,976
170,300	0,377	0,977
170,350	0,375	0,976
170,400	0,375	0,977
170,450	0,374	0,976
170,500	0,374	0,977
170,550	0,372	0,975
170,600	0,371	0,976
170,650	0,369	0,975
170,700	0,367	0,976
170,750	0,366	0,975
170,800	0,365	0,976
170,850	0,363	0,974
170,900	0,363	0,976
170,950	0,363	0,975
171,000	0,363	0,976
171,050	0,363	0,975
171,100	0,363	0,976
171,150	0,363	0,975
171,200	0,363	0,976
171,250	0,363	0,975
171,300	0,363	0,976
171,350	0,363	0,975
171,400	0,363	0,976
171,450	0,363	0,975
171,500	0,363	0,976
171,550	0,361	0,974
171,600	0,360	0,975
171,650	0,358	0,974
171,700	0,357	0,975
171,750	0,355	0,974
171,800	0,353	0,975
171,850	0,352	0,973
171,900	0,350	0,975
171,950	0,349	0,973
172,000	0,348	0,974
172,050	0,348	0,973
172,100	0,347	0,974
172,150	0,346	0,973
172,200	0,345	0,974
172,250	0,345	0,973
172,300	0,344	0,974
172,350	0,343	0,973
172,400	0,343	0,974
172,450	0,342	0,972
172,500	0,341	0,974
172,550	0,340	0,972
172,600	0,339	0,974
172,650	0,338	0,972
172,700	0,337	0,973
172,750	0,336	0,972
172,800	0,335	0,973
172,850	0,334	0,972
172,900	0,334	0,973
172,950	0,334	0,972
173,000	0,333	0,973
173,050	0,335	0,972
173,100	0,332	0,973
173,150	0,331	0,972
173,200	0,329	0,973
173,250	0,328	0,971
173,300	0,328	0,972
173,350	0,326	0,971
173,400	0,324	0,972
173,450	0,323	0,971
173,500	0,323	0,972
173,550	0,323	0,971
173,600	0,322	0,972
173,650	0,321	0,971
173,700	0,320	0,972
173,750	0,318	0,970
173,800	0,317	0,971
173,850	0,317	0,970
173,900	0,317	0,971
173,950	0,317	0,970
174,000	0,316	0,971
174,050	0,315	0,970
174,100	0,314	0,971
174,150	0,313	0,970
174,200	0,313	0,970
174,250	0,313	0,970
174,300	0,313	0,971
174,350	0,313	0,969
174,400	0,312	0,971
174,450	0,311	0,969
174,500	0,311	0,970
174,550	0,311	0,969
174,600	0,310	0,971
174,650	0,309	0,969
174,700	0,308	0,970
174,750	0,306	0,969
174,800	0,306	0,970
174,850	0,306	0,969
174,900	0,306	0,970
174,950	0,305	0,969
175,000	0,303	0,969
175,050	0,302	0,968
175,100	0,302	0,969
175,150	0,300	0,968
175,200	0,299	0,969
175,250	0,299	0,968
175,300	0,297	0,969
175,350	0,296	0,968
175,400	0,296	0,969
175,450	0,296	0,968
175,500	0,294	0,969
175,550	0,293	0,967
175,600	0,293	0,968
175,650	0,292	0,967
175,700	0,290	0,968
175,750	0,291	0,967
175,800	0,290	0,968
175,850	0,289	0,967
175,900	0,288	0,968
175,950	0,285	0,967
176,000	0,283	0,967
176,050	0,282	0,966
176,100	0,280	0,967
176,150	0,280	0,966
176,200	0,280	0,967
176,250	0,279	0,966
176,300	0,276	0,966
176,350	0,271	0,965
176,400	0,267	0,965
176,450	0,266	0,964
176,500	0,266	0,965
176,550	0,265	0,964
176,600	0,265	0,965
176,650	0,265	0,964
176,700	0,265	0,965
176,750	0,265	0,964
176,800	0,265	0,965
176,850	0,265	0,963
176,900	0,266	0,965
176,950	0,265	0,964
177,000	0,265	0,965
177,050	0,264	0,963
177,100	0,262	0,965
177,150	0,261	0,963
177,200	0,261	0,964
177,250	0,261	0,963
177,300	0,261	0,964
177,350	0,259	0,963
177,400	0,254	0,964
177,450	0,249	0,962
177,500	0,246	0,962
177,550	0,244	0,961
177,600	0,244	0,962
177,650	0,243	0,960
177,700	0,243	0,962
177,750	0,243	0,961
177,800	0,243	0,962
177,850	0,243	0,961
177,900	0,243	0,961
177,950	0,243	0,961
178,000	0,243	0,962
178,050	0,243	0,961
178,100	0,242	0,961
178,150	0,240	0,960
178,200	0,238	0,961
178,250	0,237	0,960
178,300	0,235	0,960
178,350	0,232	0,959
178,400	0,230	0,960
178,450	0,228	0,958
178,500	0,226	0,959
178,550	0,224	0,957
178,600	0,223	0,959
178,650	0,222	0,957
178,700	0,221	0,958
178,750	0,221	0,957
178,800	0,221	0,958
178,850	0,221	0,957
178,900	0,221	0,958
178,950	0,221	0,957
179,000	0,221	0,958
179,050	0,221	0,957
179,100	0,220	0,958
179,150	0,219	0,957
179,200	0,218	0,958
179,250	0,217	0,956
179,300	0,215	0,957
179,350	0,214	0,956
179,400	0,213	0,957
179,450	0,212	0,955
179,500	0,211	0,956
179,550	0,210	0,955
179,600	0,209	0,956
179,650	0,208	0,955
179,700	0,205	0,955
179,750	0,204	0,954
179,800	0,203	0,955
179,850	0,203	0,954
179,900	0,203	0,955
179,950	0,201	0,953
180,000	0,200	0,954
180,050	0,200	0,953
180,100	0,200	0,954
180,150	0,199	0,953
180,200	0,199	0,954
180,250	0,199	0,953
180,300	0,199	0,954
180,350	0,199	0,953
180,400	0,200	0,954
180,450	0,199	0,953
180,500	0,200	0,954
180,550	0,199	0,953
180,600	0,199	0,954
180,650	0,197	0,953
180,700	0,193	0,953
180,750	0,192	0,952
180,800	0,191	0,952
180,850	0,190	0,951
180,900	0,188	0,952
180,950	0,187	0,951
181,000	0,187	0,951
181,050	0,185	0,950
181,100	0,185	0,951
181,150	0,184	0,950
181,200	0,182	0,950
181,250	0,181	0,949
181,300	0,181	0,950
181,350	0,180	0,949
181,400	0,179	0,949
181,450	0,178	0,948
181,500	0,177	0,949
181,550	0,177	0,948
181,600	0,177	0,949
181,650	0,176	0,948
181,700	0,176	0,949
181,750	0,176	0,948
181,800	0,175	0,949
181,850	0,174	0,947
181,900	0,172	0,948
181,950	0,170	0,946
182,000	0,169	0,947
182,050	0,168	0,946
182,100	0,167	0,947
182,150	0,167	0,945
182,200	0,167	0,946
182,250	0,167	0,945
182,300	0,167	0,946
182,350	0,166	0,945
182,400	0,166	0,946
182,450	0,166	0,945
182,500	0,166	0,946
182,550	0,167	0,946
182,600	0,167	0,946
182,650	0,166	0,945
182,700	0,167	0,946
182,750	0,166	0,945
182,800	0,167	0,947
182,850	0,167	0,946
182,900	0,166	0,946
182,950	0,164	0,945
183,000	0,160	0,945
183,050	0,157	0,943
183,100	0,155	0,943
183,150	0,153	0,942
183,200	0,152	0,942
183,250	0,150	0,941
183,300	0,149	0,941
183,350	0,148	0,940
183,400	0,146	0,941
183,450	0,145	0,939
183,500	0,144	0,940
183,550	0,144	0,939
183,600	0,144	0,939
183,650	0,143	0,939
183,700	0,144	0,940
183,750	0,143	0,939
183,800	0,143	0,939
183,850	0,143	0,938
183,900	0,143	0,939
183,950	0,143	0,939
184,000	0,143	0,939
184,050	0,142	0,938
184,100	0,141	0,939
184,150	0,140	0,938
184,200	0,139	0,938
184,250	0,137	0,937
184,300	0,136	0,937
184,350	0,134	0,936
184,400	0,133	0,936
184,450	0,132	0,935
184,500	0,130	0,935
184,550	0,128	0,934
184,600	0,126	0,933
184,650	0,124	0,932
184,700	0,123	0,932
184,750	0,123	0,931
184,800	0,122	0,931
184,850	0,122	0,930
184,900	0,121	0,931
184,950	0,121	0,930
185,000	0,121	0,931
185,050	0,121	0,930
185,100	0,120	0,930
185,150	0,120	0,930
185,200	0,120	0,930
185,250	0,120	0,930
185,300	0,118	0,930
185,350	0,116	0,928
185,400	0,115	0,929
185,450	0,114	0,927
185,500	0,113	0,927
185,550	0,113	0,926
185,600	0,112	0,927
185,650	0,110	0,925
185,700	0,109	0,925
185,750	0,108	0,924
185,800	0,107	0,924
185,850	0,106	0,923
185,900	0,105	0,923
185,950	0,105	0,922
186,000	0,105	0,923
186,050	0,104	0,921
186,100	0,104	0,922
186,150	0,104	0,921
186,200	0,104	0,922
186,250	0,103	0,921
186,300	0,103	0,922
186,350	0,102	0,920
186,400	0,101	0,921
186,450	0,101	0,919
186,500	0,101	0,920
186,550	0,101	0,920
186,600	0,100	0,920
186,650	0,099	0,919
186,700	0,097	0,918
186,750	0,096	0,917
186,800	0,095	0,917
186,850	0,094	0,916
186,900	0,093	0,916
186,950	0,091	0,914
187,000	0,091	0,914
187,050	0,090	0,913
187,100	0,089	0,913
187,150	0,089	0,912
187,200	0,088	0,912
187,250	0,088	0,911
187,300	0,088	0,912
187,350	0,087	0,911
187,400	0,087	0,911
187,450	0,086	0,910
187,500	0,085	0,910
187,550	0,084	0,909
187,600	0,083	0,909
187,650	0,083	0,908
187,700	0,083	0,908
187,750	0,081	0,907
187,800	0,080	0,906
187,850	0,079	0,905
187,900	0,078	0,905
187,950	0,077	0,904
188,000	0,076	0,903
188,050	0,075	0,902
188,100	0,073	0,901
188,150	0,072	0,899
188,200	0,071	0,899
188,250	0,071	0,898
188,300	0,070	0,898
188,350	0,070	0,897
188,400	0,069	0,897
188,450	0,069	0,896
188,500	0,068	0,896
188,550	0,068	0,895
188,600	0,068	0,896
188,650	0,067	0,894
188,700	0,067	0,895
188,750	0,067	0,894
188,800	0,067	0,895
188,850	0,067	0,894
188,900	0,067	0,894
188,950	0,067	0,894
189,000	0,066	0,894
189,050	0,065	0,893
189,100	0,063	0,892
189,150	0,063	0,891
189,200	0,062	0,891
189,250	0,061	0,889
189,300	0,060	0,889
189,350	0,060	0,888
189,400	0,059	0,887
189,450	0,058	0,886
189,500	0,055	0,884
189,550	0,052	0,882
189,600	0,050	0,880
189,650	0,049	0,877
189,700	0,047	0,875
189,750	0,047	0,874
189,800	0,045	0,872
189,850	0,044	0,870
189,900	0,044	0,870
189,950	0,043	0,868
190,000	0,042	0,868
190,050	0,042	0,866
190,100	0,041	0,866
190,150	0,040	0,864
190,200	0,040	0,864
190,250	0,039	0,862
190,300	0,038	0,862
190,350	0,037	0,860
190,400	0,036	0,859
190,450	0,036	0,858
190,500	0,035	0,857
190,550	0,034	0,856
190,600	0,034	0,855
190,650	0,034	0,854
190,700	0,033	0,854
190,750	0,032	0,852
190,800	0,032	0,852
190,850	0,032	0,851
190,900	0,032	0,851
190,950	0,030	0,850
191,000	0,029	0,848
191,050	0,027	0,845
191,100	0,025	0,844
191,150	0,024	0,841
191,200	0,024	0,840
191,250	0,023	0,838
191,300	0,022	0,836
191,350	0,021	0,834
191,400	0,020	0,833
191,450	0,019	0,831
191,500	0,019	0,830
191,550	0,018	0,828
191,600	0,017	0,827
191,650	0,017	0,825
191,700	0,016	0,824
191,750	0,015	0,822
191,800	0,015	0,822
191,850	0,015	0,820
191,900	0,014	0,819
191,950	0,013	0,818
192,000	0,013	0,817
192,050	0,012	0,815
192,100	0,011	0,813
192,150	0,011	0,812
192,200	0,010	0,811
192,250	0,010	0,809
192,300	0,010	0,809
192,350	0,009	0,807
192,400	0,009	0,806
192,450	0,009	0,805
192,500	0,008	0,804
192,550	0,008	0,803
192,600	0,008	0,803
192,650	0,007	0,801
192,700	0,007	0,801
192,750	0,006	0,799
192,800	0,006	0,798
192,850	0,006	0,797
192,900	0,006	0,797
192,950	0,005	0,795
193,000	0,005	0,795
193,050	0,005	0,794
193,100	0,005	0,794
193,150	0,005	0,793
193,200	0,004	0,792
193,250	0,004	0,791
193,300	0,004	0,791
193,350	0,004	0,790
193,400	0,004	0,790
193,450	0,004	0,789
193,500	0,004	0,789
193,550	0,003	0,788
193,600	0,003	0,788
193,650	0,003	0,787
193,700	0,003	0,787
193,750	0,003	0,786
193,800	0,003	0,786
193,850	0,002	0,785
193,900	0,001	0,784
193,950	8,812E-4	0,782
194,000	9,264E-4	0,782
194,050	9,948E-4	0,781
194,100	9,374E-4	0,781
194,150	0,001	0,780
194,200	9,484E-4	0,780
194,250	9,838E-4	0,779
194,300	9,532E-4	0,779
194,350	0,001	0,779
194,400	8,617E-4	0,779
194,450	9,386E-4	0,779
194,500	6,664E-4	0,779
194,550	1,927E-4	0,778
194,600	-0,001	0,777
194,650	-0,001	0,775
194,700	-0,002	0,774
194,750	-0,002	0,772
194,800	-0,002	0,772
194,850	-0,002	0,770
194,900	-0,003	0,769
194,950	-0,003	0,768
195,000	-0,003	0,767
195,050	-0,004	0,765
195,100	-0,004	0,765
195,150	-0,005	0,763
195,200	-0,005	0,762
195,250	-0,006	0,759
195,300	-0,007	0,758
195,350	-0,007	0,755
195,400	-0,008	0,753
195,450	-0,008	0,751
195,500	-0,009	0,748
195,550	-0,010	0,746
195,600	-0,010	0,744
195,650	-0,010	0,741
195,700	-0,011	0,739
195,750	-0,011	0,737
195,800	-0,012	0,735
195,850	-0,012	0,733
195,900	-0,012	0,732
195,950	-0,012	0,729
196,000	-0,013	0,728
196,050	-0,013	0,726
196,100	-0,013	0,724
196,150	-0,013	0,722
196,200	-0,014	0,720
196,250	-0,013	0,719
196,300	-0,014	0,717
196,350	-0,014	0,714
196,400	-0,014	0,713
196,450	-0,015	0,711
196,500	-0,015	0,709
196,550	-0,015	0,707
196,600	-0,015	0,706
196,650	-0,015	0,703
196,700	-0,016	0,700
196,750	-0,016	0,698
196,800	-0,016	0,696
196,850	-0,016	0,694
196,900	-0,017	0,691
196,950	-0,017	0,689
197,000	-0,017	0,687
197,050	-0,018	0,684
197,100	-0,018	0,682
197,150	-0,018	0,679
197,200	-0,018	0,677
197,250	-0,018	0,674
197,300	-0,019	0,671
197,350	-0,018	0,669
197,400	-0,019	0,666
197,450	-0,019	0,663
197,500	-0,019	0,661
197,550	-0,019	0,658
197,600	-0,019	0,657
197,650	-0,020	0,654
197,700	-0,020	0,652
197,750	-0,020	0,649
197,800	-0,020	0,647
197,850	-0,020	0,645
197,900	-0,020	0,642
197,950	-0,020	0,640
198,000	-0,020	0,638
198,050	-0,020	0,636
198,100	-0,020	0,634
198,150	-0,021	0,631
198,200	-0,021	0,629
198,250	-0,021	0,628
198,300	-0,021	0,626
198,350	-0,021	0,623
198,400	-0,021	0,621
198,450	-0,021	0,619
198,500	-0,021	0,617
198,550	-0,022	0,614
198,600	-0,022	0,613
198,650	-0,021	0,610
198,700	-0,022	0,608
198,750	-0,022	0,605
198,800	-0,022	0,603
198,850	-0,022	0,601
198,900	-0,023	0,598
198,950	-0,022	0,596
199,000	-0,022	0,594
199,050	-0,023	0,591
199,100	-0,023	0,589
199,150	-0,023	0,586
199,200	-0,023	0,584
199,250	-0,023	0,582
199,300	-0,023	0,579
199,350	-0,024	0,577
199,400	-0,024	0,575
199,450	-0,023	0,573
199,500	-0,023	0,571
199,550	-0,024	0,568
199,600	-0,024	0,566
199,650	-0,024	0,563
199,700	-0,024	0,561
199,750	-0,024	0,559
199,800	-0,025	0,556
199,850	-0,025	0,554
199,900	-0,025	0,552
199,950	-0,025	0,550
200,000	-0,025	0,547
200,050	-0,025	0,545
200,100	-0,025	0,543
200,150	-0,025	0,540
200,200	-0,026	0,538
200,250	-0,026	0,536
200,300	-0,026	0,534
200,350	-0,026	0,531
200,400	-0,026	0,529
200,450	-0,026	0,527
200,500	-0,026	0,525
200,550	-0,026	0,522
200,600	-0,026	0,520
200,650	-0,027	0,518
200,700	-0,026	0,516
200,750	-0,027	0,514
200,800	-0,027	0,512
200,850	-0,027	0,510
200,900	-0,027	0,508
200,950	-0,027	0,506
201,000	-0,027	0,504
201,050	-0,027	0,502
201,100	-0,028	0,499
201,150	-0,028	0,498
201,200	-0,028	0,496
201,250	-0,028	0,494
201,300	-0,028	0,492
201,350	-0,028	0,489
201,400	-0,028	0,487
201,450	-0,028	0,485
201,500	-0,028	0,483
201,550	-0,028	0,481
201,600	-0,029	0,479
201,650	-0,029	0,477
201,700	-0,029	0,475
201,750	-0,029	0,473
201,800	-0,030	0,471
201,850	-0,029	0,469
201,900	-0,029	0,467
201,950	-0,029	0,465
202,000	-0,030	0,463
202,050	-0,030	0,461
202,100	-0,030	0,460
202,150	-0,030	0,458
202,200	-0,030	0,456
202,250	-0,030	0,454
202,300	-0,031	0,452
202,350	-0,031	0,450
202,400	-0,031	0,448
202,450	-0,031	0,446
202,500	-0,031	0,444
202,550	-0,031	0,443
202,600	-0,031	0,441
202,650	-0,032	0,439
202,700	-0,031	0,437
202,750	-0,032	0,435
202,800	-0,032	0,434
202,850	-0,032	0,432
202,900	-0,032	0,430
202,950	-0,033	0,428
203,000	-0,033	0,426
203,050	-0,033	0,424
203,100	-0,033	0,423
203,150	-0,033	0,421
203,200	-0,033	0,420
203,250	-0,033	0,418
203,300	-0,034	0,416
203,350	-0,034	0,414
203,400	-0,034	0,413
203,450	-0,034	0,411
203,500	-0,034	0,409
203,550	-0,035	0,407
203,600	-0,035	0,405
203,650	-0,035	0,403
203,700	-0,035	0,402
203,750	-0,036	0,400
203,800	-0,036	0,398
203,850	-0,036	0,396
203,900	-0,037	0,394
203,950	-0,037	0,391
204,000	-0,038	0,389
204,050	-0,039	0,386
204,100	-0,039	0,382
204,150	-0,040	0,378
204,200	-0,041	0,375
204,250	-0,041	0,371
204,300	-0,041	0,369
204,350	-0,042	0,365
204,400	-0,042	0,362
204,450	-0,043	0,359
204,500	-0,043	0,356
204,550	-0,043	0,353
204,600	-0,044	0,350
204,650	-0,045	0,347
204,700	-0,045	0,345
204,750	-0,045	0,342
204,800	-0,045	0,340
204,850	-0,046	0,338
204,900	-0,046	0,335
204,950	-0,046	0,333
205,000	-0,047	0,331
205,050	-0,047	0,329
205,100	-0,048	0,326
205,150	-0,048	0,324
205,200	-0,049	0,321
205,250	-0,049	0,319
205,300	-0,049	0,317
205,350	-0,050	0,315
205,400	-0,051	0,313
205,450	-0,052	0,310
205,500	-0,052	0,307
205,550	-0,053	0,305
205,600	-0,054	0,302
205,650	-0,055	0,299
205,700	-0,056	0,296
205,750	-0,056	0,293
205,800	-0,057	0,290
205,850	-0,058	0,286
205,900	-0,059	0,283
205,950	-0,059	0,281
206,000	-0,060	0,278
206,050	-0,061	0,275
206,100	-0,061	0,273
206,150	-0,062	0,270
206,200	-0,063	0,268
206,250	-0,063	0,265
206,300	-0,064	0,263
206,350	-0,064	0,261
206,400	-0,065	0,259
206,450	-0,066	0,257
206,500	-0,066	0,255
206,550	-0,067	0,253
206,600	-0,067	0,252
206,650	-0,068	0,250
206,700	-0,068	0,249
206,750	-0,069	0,247
206,800	-0,070	0,245
206,850	-0,071	0,243
206,900	-0,072	0,240
206,950	-0,073	0,238
207,000	-0,074	0,235
207,050	-0,075	0,233
207,100	-0,075	0,231
207,150	-0,076	0,229
207,200	-0,077	0,227
207,250	-0,078	0,225
207,300	-0,078	0,224
207,350	-0,079	0,222
207,400	-0,080	0,220
207,450	-0,081	0,218
207,500	-0,082	0,216
207,550	-0,083	0,214
207,600	-0,084	0,212
207,650	-0,085	0,210
207,700	-0,086	0,208
207,750	-0,086	0,206
207,800	-0,087	0,205
207,850	-0,087	0,204
207,900	-0,088	0,203
207,950	-0,088	0,201
208,000	-0,089	0,200
208,050	-0,089	0,199
208,100	-0,090	0,198
208,150	-0,091	0,197
208,200	-0,091	0,196
208,250	-0,092	0,195
208,300	-0,093	0,194
208,350	-0,093	0,192
208,400	-0,094	0,191
208,450	-0,095	0,190
208,500	-0,096	0,188
208,550	-0,097	0,187
208,600	-0,097	0,186
208,650	-0,098	0,184
208,700	-0,100	0,183
208,750	-0,100	0,181
208,800	-0,101	0,180
208,850	-0,102	0,179
208,900	-0,103	0,177
208,950	-0,103	0,176
209,000	-0,104	0,175
209,050	-0,105	0,174
209,100	-0,106	0,173
209,150	-0,106	0,172
209,200	-0,107	0,171
209,250	-0,108	0,169
209,300	-0,109	0,168
209,350	-0,110	0,167
209,400	-0,111	0,166
209,450	-0,112	0,165
209,500	-0,113	0,163
209,550	-0,114	0,162
209,600	-0,114	0,161
209,650	-0,115	0,160
209,700	-0,115	0,160
209,750	-0,116	0,159
209,800	-0,116	0,158
209,850	-0,117	0,158
209,900	-0,117	0,157
209,950	-0,117	0,157
210,000	-0,118	0,156
210,050	-0,119	0,156
210,100	-0,119	0,155
210,150	-0,120	0,155
210,200	-0,120	0,154
210,250	-0,121	0,153
210,300	-0,121	0,152
210,350	-0,122	0,152
210,400	-0,123	0,150
210,450	-0,124	0,150
210,500	-0,124	0,149
210,550	-0,125	0,148
210,600	-0,126	0,147
210,650	-0,127	0,147
210,700	-0,127	0,146
210,750	-0,128	0,145
210,800	-0,129	0,144
210,850	-0,130	0,144
210,900	-0,130	0,143
210,950	-0,131	0,142
211,000	-0,132	0,141
211,050	-0,133	0,141
211,100	-0,133	0,140
211,150	-0,134	0,139
211,200	-0,135	0,139
211,250	-0,136	0,138
211,300	-0,137	0,137
211,350	-0,138	0,136
211,400	-0,139	0,135
211,450	-0,139	0,135
211,500	-0,140	0,134
211,550	-0,140	0,133
211,600	-0,141	0,133
211,650	-0,141	0,133
211,700	-0,141	0,132
211,750	-0,142	0,132
211,800	-0,142	0,132
211,850	-0,142	0,132
211,900	-0,142	0,131
211,950	-0,142	0,131
212,000	-0,142	0,131
212,050	-0,142	0,131
212,100	-0,143	0,131
212,150	-0,143	0,131
212,200	-0,143	0,131
212,250	-0,142	0,131
212,300	-0,143	0,131
212,350	-0,145	0,130
212,400	-0,146	0,129
212,450	-0,147	0,128
212,500	-0,148	0,127
212,550	-0,149	0,126
212,600	-0,150	0,125
212,650	-0,151	0,125
212,700	-0,152	0,124
212,750	-0,153	0,123
212,800	-0,154	0,123
212,850	-0,155	0,122
212,900	-0,156	0,121
212,950	-0,157	0,121
213,000	-0,159	0,119
213,050	-0,160	0,118
213,100	-0,161	0,118
213,150	-0,162	0,117
213,200	-0,164	0,116
213,250	-0,165	0,115
213,300	-0,167	0,114
213,350	-0,168	0,113
213,400	-0,170	0,112
213,450	-0,172	0,111
213,500	-0,174	0,109
213,550	-0,176	0,108
213,600	-0,179	0,106
213,650	-0,181	0,105
213,700	-0,181	0,105
213,750	-0,182	0,104
213,800	-0,183	0,104
213,850	-0,184	0,103
213,900	-0,184	0,103
213,950	-0,186	0,102
214,000	-0,187	0,102
214,050	-0,189	0,101
214,100	-0,191	0,099
214,150	-0,193	0,099
214,200	-0,195	0,098
214,250	-0,197	0,097
214,300	-0,199	0,096
214,350	-0,201	0,095
214,400	-0,203	0,094
214,450	-0,204	0,094
214,500	-0,206	0,092
214,550	-0,207	0,093
214,600	-0,208	0,091
214,650	-0,208	0,092
214,700	-0,209	0,091
214,750	-0,209	0,091
214,800	-0,210	0,090
214,850	-0,211	0,090
214,900	-0,213	0,090
214,950	-0,215	0,089
215,000	-0,216	0,088
215,050	-0,218	0,088
215,100	-0,220	0,087
215,150	-0,222	0,086
215,200	-0,223	0,085
215,250	-0,225	0,085
215,300	-0,226	0,084
215,350	-0,227	0,084
215,400	-0,229	0,083
215,450	-0,231	0,083
215,500	-0,232	0,082
215,550	-0,232	0,083
215,600	-0,234	0,081
215,650	-0,235	0,082
215,700	-0,236	0,081
215,750	-0,237	0,081
215,800	-0,237	0,080
215,850	-0,238	0,080
215,900	-0,239	0,080
215,950	-0,240	0,080
216,000	-0,241	0,079
216,050	-0,242	0,079
216,100	-0,243	0,078
216,150	-0,246	0,078
216,200	-0,250	0,077
216,250	-0,253	0,076
216,300	-0,256	0,075
216,350	-0,257	0,075
216,400	-0,258	0,074
216,450	-0,259	0,074
216,500	-0,259	0,073
216,550	-0,260	0,074
216,600	-0,260	0,073
216,650	-0,260	0,074
216,700	-0,260	0,073
216,750	-0,260	0,074
216,800	-0,260	0,073
216,850	-0,261	0,073
216,900	-0,261	0,073
216,950	-0,261	0,073
217,000	-0,261	0,073
217,050	-0,261	0,073
217,100	-0,261	0,073
217,150	-0,261	0,073
217,200	-0,261	0,073
217,250	-0,261	0,074
217,300	-0,261	0,073
217,350	-0,261	0,073
217,400	-0,261	0,072
217,450	-0,261	0,073
217,500	-0,262	0,072
217,550	-0,262	0,073
217,600	-0,262	0,072
217,650	-0,261	0,074
217,700	-0,262	0,073
217,750	-0,263	0,073
217,800	-0,268	0,071
217,850	-0,272	0,071
217,900	-0,274	0,069
217,950	-0,275	0,070
218,000	-0,276	0,069
218,050	-0,276	0,070
218,100	-0,277	0,068
218,150	-0,277	0,069
218,200	-0,277	0,068
218,250	-0,277	0,069
218,300	-0,278	0,068
218,350	-0,277	0,069
218,400	-0,278	0,068
218,450	-0,279	0,069
218,500	-0,280	0,068
218,550	-0,281	0,068
218,600	-0,282	0,068
218,650	-0,284	0,068
218,700	-0,288	0,066
218,750	-0,292	0,066
218,800	-0,297	0,064
218,850	-0,301	0,064
218,900	-0,304	0,062
218,950	-0,307	0,063
219,000	-0,309	0,061
219,050	-0,310	0,062
219,100	-0,310	0,061
219,150	-0,311	0,061
219,200	-0,312	0,060
219,250	-0,313	0,061
219,300	-0,313	0,060
219,350	-0,313	0,061
219,400	-0,313	0,060
219,450	-0,314	0,061
219,500	-0,314	0,060
219,550	-0,314	0,061
219,600	-0,314	0,060
219,650	-0,315	0,061
219,700	-0,315	0,060
219,750	-0,316	0,060
219,800	-0,316	0,060
219,850	-0,316	0,060
219,900	-0,316	0,059
219,950	-0,316	0,060
220,000	-0,316	0,059
220,050	-0,316	0,060
220,100	-0,316	0,060
220,150	-0,316	0,060
220,200	-0,318	0,059
220,250	-0,320	0,060
220,300	-0,322	0,058
220,350	-0,326	0,058
220,400	-0,329	0,057
220,450	-0,332	0,057
220,500	-0,335	0,056
220,550	-0,337	0,056
220,600	-0,339	0,055
220,650	-0,340	0,056
220,700	-0,341	0,055
220,750	-0,343	0,055
220,800	-0,344	0,055
220,850	-0,347	0,055
220,900	-0,349	0,053
220,950	-0,350	0,054
221,000	-0,350	0,053
221,050	-0,351	0,054
221,100	-0,352	0,053
221,150	-0,352	0,054
221,200	-0,352	0,053
221,250	-0,352	0,054
221,300	-0,351	0,053
221,350	-0,352	0,054
221,400	-0,351	0,053
221,450	-0,351	0,054
221,500	-0,351	0,053
221,550	-0,351	0,054
221,600	-0,352	0,053
221,650	-0,352	0,054
221,700	-0,355	0,053
221,750	-0,357	0,053
221,800	-0,358	0,052
221,850	-0,359	0,053
221,900	-0,361	0,052
221,950	-0,363	0,052
222,000	-0,364	0,051
222,050	-0,364	0,052
222,100	-0,364	0,051
222,150	-0,366	0,052
222,200	-0,368	0,050
222,250	-0,369	0,051
222,300	-0,371	0,050
222,350	-0,373	0,050
222,400	-0,374	0,050
222,450	-0,376	0,050
222,500	-0,378	0,049
222,550	-0,380	0,049
222,600	-0,382	0,048
222,650	-0,382	0,049
222,700	-0,383	0,048
222,750	-0,383	0,049
222,800	-0,383	0,048
222,850	-0,384	0,049
222,900	-0,384	0,048
222,950	-0,384	0,048
223,000	-0,384	0,048
223,050	-0,385	0,049
223,100	-0,385	0,048
223,150	-0,385	0,049
223,200	-0,385	0,048
223,250	-0,386	0,049
223,300	-0,392	0,047
223,350	-0,397	0,047
223,400	-0,400	0,046
223,450	-0,403	0,046
223,500	-0,405	0,045
223,550	-0,406	0,046
223,600	-0,407	0,045
223,650	-0,410	0,045
223,700	-0,412	0,044
223,750	-0,414	0,045
223,800	-0,416	0,044
223,850	-0,417	0,044
223,900	-0,418	0,043
223,950	-0,419	0,044
224,000	-0,419	0,043
224,050	-0,419	0,044
224,100	-0,419	0,043
224,150	-0,419	0,044
224,200	-0,421	0,043
224,250	-0,424	0,043
224,300	-0,428	0,042
224,350	-0,432	0,042
224,400	-0,435	0,041
224,450	-0,438	0,042
224,500	-0,440	0,040
224,550	-0,440	0,041
224,600	-0,441	0,040
224,650	-0,441	0,041
224,700	-0,441	0,040
224,750	-0,441	0,041
224,800	-0,441	0,040
224,850	-0,441	0,041
224,900	-0,441	0,040
224,950	-0,442	0,041
225,000	-0,443	0,040
225,050	-0,445	0,041
225,100	-0,448	0,040
225,150	-0,449	0,040
225,200	-0,450	0,039
225,250	-0,452	0,040
225,300	-0,454	0,039
225,350	-0,456	0,039
225,400	-0,458	0,038
225,450	-0,461	0,039
225,500	-0,463	0,038
225,550	-0,466	0,038
225,600	-0,468	0,037
225,650	-0,470	0,038
225,700	-0,472	0,037
225,750	-0,474	0,037
225,800	-0,477	0,036
225,850	-0,478	0,036
225,900	-0,481	0,036
225,950	-0,484	0,036
226,000	-0,486	0,035
226,050	-0,486	0,036
226,100	-0,488	0,035
226,150	-0,488	0,036
226,200	-0,489	0,035
226,250	-0,489	0,036
226,300	-0,489	0,035
226,350	-0,489	0,036
226,400	-0,489	0,035
226,450	-0,489	0,036
226,500	-0,489	0,034
226,550	-0,489	0,035
226,600	-0,489	0,035
226,650	-0,492	0,036
226,700	-0,496	0,034
226,750	-0,497	0,035
226,800	-0,499	0,034
226,850	-0,503	0,034
226,900	-0,507	0,033
226,950	-0,509	0,034
227,000	-0,513	0,032
227,050	-0,516	0,033
227,100	-0,520	0,032
227,150	-0,523	0,032
227,200	-0,525	0,031
227,250	-0,527	0,032
227,300	-0,528	0,031
227,350	-0,528	0,032
227,400	-0,529	0,031
227,450	-0,528	0,032
227,500	-0,528	0,031
227,550	-0,530	0,031
227,600	-0,533	0,030
227,650	-0,535	0,031
227,700	-0,536	0,030
227,750	-0,535	0,031
227,800	-0,535	0,030
227,850	-0,536	0,031
227,900	-0,537	0,030
227,950	-0,542	0,030
228,000	-0,545	0,030
228,050	-0,548	0,030
228,100	-0,552	0,029
228,150	-0,554	0,029
228,200	-0,555	0,028
228,250	-0,557	0,029
228,300	-0,559	0,028
228,350	-0,560	0,029
228,400	-0,561	0,028
228,450	-0,561	0,029
228,500	-0,562	0,028
228,550	-0,563	0,028
228,600	-0,563	0,027
228,650	-0,565	0,028
228,700	-0,568	0,027
228,750	-0,571	0,028
228,800	-0,572	0,027
228,850	-0,573	0,028
228,900	-0,573	0,027
228,950	-0,575	0,027
229,000	-0,576	0,026
229,050	-0,577	0,027
229,100	-0,579	0,026
229,150	-0,581	0,027
229,200	-0,582	0,026
229,250	-0,583	0,027
229,300	-0,584	0,026
229,350	-0,584	0,026
229,400	-0,585	0,026
229,450	-0,585	0,026
229,500	-0,585	0,026
229,550	-0,586	0,026
229,600	-0,589	0,025
229,650	-0,590	0,026
229,700	-0,592	0,025
229,750	-0,593	0,026
229,800	-0,593	0,025
229,850	-0,595	0,026
229,900	-0,597	0,025
229,950	-0,598	0,026
230,000	-0,602	0,025
230,050	-0,604	0,025
230,100	-0,604	0,024
230,150	-0,605	0,025
230,200	-0,607	0,024
230,250	-0,609	0,025
230,300	-0,609	0,024
230,350	-0,610	0,024
230,400	-0,611	0,024
230,450	-0,611	0,024
230,500	-0,611	0,024
230,550	-0,611	0,024
230,600	-0,611	0,024
230,650	-0,611	0,024
230,700	-0,611	0,023
230,750	-0,610	0,024
230,800	-0,611	0,023
230,850	-0,613	0,024
230,900	-0,615	0,024
230,950	-0,615	0,024
231,000	-0,617	0,024
231,050	-0,620	0,024
231,100	-0,622	0,023
231,150	-0,625	0,023
231,200	-0,625	0,023
231,250	-0,625	0,023
231,300	-0,626	0,022
231,350	-0,626	0,023
231,400	-0,626	0,023
231,450	-0,626	0,023
231,500	-0,626	0,022
231,550	-0,627	0,023
231,600	-0,627	0,022
231,650	-0,628	0,023
231,700	-0,632	0,022
231,750	-0,639	0,022
231,800	-0,643	0,021
231,850	-0,644	0,022
231,900	-0,645	0,021
231,950	-0,647	0,021
232,000	-0,649	0,021
232,050	-0,651	0,021
232,100	-0,653	0,020
232,150	-0,655	0,021
232,200	-0,656	0,020
232,250	-0,656	0,021
232,300	-0,656	0,020
232,350	-0,656	0,021
232,400	-0,656	0,020
232,450	-0,656	0,021
232,500	-0,656	0,020
232,550	-0,657	0,021
232,600	-0,660	0,020
232,650	-0,662	0,020
232,700	-0,665	0,020
232,750	-0,667	0,020
232,800	-0,669	0,019
232,850	-0,670	0,020
232,900	-0,671	0,019
232,950	-0,672	0,019
233,000	-0,673	0,019
233,050	-0,676	0,019
233,100	-0,677	0,019
233,150	-0,679	0,019
233,200	-0,679	0,019
233,250	-0,679	0,019
233,300	-0,680	0,018
233,350	-0,680	0,019
233,400	-0,680	0,018
233,450	-0,681	0,019
233,500	-0,683	0,018
233,550	-0,686	0,019
233,600	-0,688	0,018
233,650	-0,690	0,018
233,700	-0,691	0,018
233,750	-0,692	0,018
233,800	-0,694	0,017
233,850	-0,695	0,018
233,900	-0,696	0,017
233,950	-0,697	0,018
234,000	-0,697	0,017
234,050	-0,696	0,018
234,100	-0,697	0,017
234,150	-0,697	0,018
234,200	-0,697	0,017
234,250	-0,697	0,018
234,300	-0,698	0,018
234,350	-0,700	0,018
234,400	-0,702	0,017
234,450	-0,704	0,017
234,500	-0,705	0,017
234,550	-0,706	0,017
234,600	-0,708	0,017
234,650	-0,710	0,017
234,700	-0,711	0,017
234,750	-0,712	0,017
234,800	-0,715	0,016
234,850	-0,716	0,017
234,900	-0,717	0,016
234,950	-0,717	0,016
235,000	-0,717	0,016
235,050	-0,717	0,016
235,100	-0,718	0,016
235,150	-0,717	0,016
235,200	-0,717	0,016
235,250	-0,717	0,016
235,300	-0,717	0,016
235,350	-0,717	0,016
235,400	-0,717	0,016
235,450	-0,717	0,016
235,500	-0,719	0,016
235,550	-0,725	0,016
235,600	-0,728	0,015
235,650	-0,728	0,016
235,700	-0,728	0,015
235,750	-0,731	0,015
235,800	-0,736	0,015
235,850	-0,738	0,015
235,900	-0,741	0,014
235,950	-0,744	0,015
236,000	-0,747	0,014
236,050	-0,749	0,014
236,100	-0,751	0,014
236,150	-0,752	0,014
236,200	-0,751	0,013
236,250	-0,750	0,014
236,300	-0,750	0,014
236,350	-0,750	0,014
236,400	-0,748	0,014
236,450	-0,748	0,014
236,500	-0,752	0,014
236,550	-0,752	0,014
236,600	-0,752	0,013
236,650	-0,751	0,014
236,700	-0,753	0,013
236,750	-0,760	0,014
236,800	-0,768	0,013
236,850	-0,773	0,013
236,900	-0,777	0,012
236,950	-0,780	0,012
237,000	-0,784	0,012
237,050	-0,789	0,012
237,100	-0,793	0,011
237,150	-0,794	0,011
237,200	-0,794	0,011
237,250	-0,794	0,011
237,300	-0,794	0,011
237,350	-0,794	0,011
237,400	-0,795	0,011
237,450	-0,799	0,011
237,500	-0,805	0,010
237,550	-0,810	0,010
237,600	-0,811	0,010
237,650	-0,811	0,010
237,700	-0,812	0,010
237,750	-0,812	0,010
237,800	-0,813	0,010
237,850	-0,817	0,010
237,900	-0,821	0,009
237,950	-0,823	0,009
238,000	-0,824	0,009
238,050	-0,825	0,009
238,100	-0,827	0,009
238,150	-0,828	0,009
238,200	-0,828	0,009
238,250	-0,830	0,009
238,300	-0,832	0,009
238,350	-0,834	0,009
238,400	-0,836	0,008
238,450	-0,836	0,009
238,500	-0,836	0,009
238,550	-0,837	0,009
238,600	-0,843	0,008
238,650	-0,849	0,008
238,700	-0,851	0,007
238,750	-0,851	0,008
238,800	-0,854	0,007
238,850	-0,857	0,008
238,900	-0,862	0,007
238,950	-0,867	0,007
239,000	-0,871	0,006
239,050	-0,875	0,006
239,100	-0,878	0,006
239,150	-0,881	0,006
239,200	-0,882	0,006
239,250	-0,883	0,006
239,300	-0,882	0,006
239,350	-0,882	0,006
239,400	-0,882	0,006
239,450	-0,882	0,006
239,500	-0,882	0,006
239,550	-0,882	0,006
239,600	-0,882	0,006
239,650	-0,884	0,006
239,700	-0,893	0,005
239,750	-0,902	0,005
239,800	-0,909	0,004
239,850	-0,915	0,004
239,900	-0,918	0,004
239,950	-0,920	0,004
240,000	-0,922	0,004
240,050	-0,923	0,004
240,100	-0,925	0,003
240,150	-0,926	0,004
240,200	-0,927	0,003
240,250	-0,929	0,004
240,300	-0,930	0,003
240,350	-0,930	0,003
240,400	-0,929	0,003
240,450	-0,928	0,004
240,500	-0,928	0,003
240,550	-0,928	0,003
240,600	-0,928	0,003
240,650	-0,929	0,003
240,700	-0,936	0,003
240,750	-0,941	0,003
240,800	-0,941	0,003
240,850	-0,942	0,003
240,900	-0,943	0,003
240,950	-0,945	0,003
241,000	-0,950	0,002
241,050	-0,956	0,002
241,100	-0,961	0,002
241,150	-0,963	0,002
241,200	-0,963	0,001
241,250	-0,965	0,002
241,300	-0,970	0,001
241,350	-0,972	0,001
241,400	-0,973	0,001
241,450	-0,973	0,001
241,500	-0,973	0,001
241,550	-0,973	0,001
241,600	-0,974	9,608E-4
241,650	-0,974	0,001
241,700	-0,974	0,001
241,750	-0,974	0,001
241,800	-0,979	8,241E-4
241,850	-0,987	8,265E-4
241,900	-0,992	1,307E-4
241,950	-0,997	1,722E-4
242,000	-0,999	-2,135E-4
242,050	-1,000	1,503E-4
242,100	-1,000	-1,488E-4
242,150	-1,000	7,092E-5
242,200	-1,000	-1,207E-4
242,250	-1,000	-9,021E-5
242,300	-1,000	-4,491E-4
242,350	-1,000	1,221E-7
242,400	-1,000	-2,281E-4
242,450	-1,000	-3,650E-5
242,500	-1,000	-3,331E-4
242,550	-1,000	2,332E-5
242,600	-1,000	-1,622E-4
242,650	-1,000	-7,922E-5
242,700	-1,000	-1,232E-4
242,750	-1,000	-1,575E-5
242,800	-1,000	-2,050E-4
242,850	-1,000	2,699E-4
242,900	-1,000	-4,320E-4
242,950	-1,000	-2,673E-5
243,000	-1,000	-2,880E-4
243,050	-1,000	-1,879E-4
243,100	-1,000	-1,989E-4
243,150	-1,000	-2,489E-4
243,200	-1,000	5,139E-5
243,250	-1,000	-1,158E-4
243,300	-1,000	-4,064E-4
243,350	-1,000	1,332E-4
243,400	-1,000	-9,631E-5
243,450	-1,000	1,039E-4
243,500	-1,000	-2,196E-4
243,550	-1,000	7,947E-5
243,600	-1,000	-2,440E-4
243,650	-1,000	1,588E-4
243,700	-1,000	-5,725E-5
243,750	-1,000	2,209E-5
243,800	-1,000	-2,697E-4
243,850	-1,000	-2,294E-4
243,900	-1,000	-3,453E-4
243,950	-1,000	-1,575E-5
244,000	-1,000	-4,479E-4
244,050	-1,000	-5,237E-5
244,100	-1,000	-1,818E-4
244,150	-1,000	1,124E-4
244,200	-1,000	-1,329E-4
244,250	-1,000	-2,574E-4
244,300	-1,000	-1,941E-5
244,350	-1,000	-1,989E-4
244,400	-1,000	-1,403E-4
244,450	-1,000	-1,659E-4
244,500	-1,000	-6,212E-4
244,550	-1,000	-2,977E-4
244,600	-1,000	-1,281E-4
244,650	-1,000	-3,380E-4
244,700	-1,000	-3,795E-4
244,750	-0,999	1,271E-4
244,800	-0,999	-4,259E-4
244,850	-0,999	2,820E-5
244,900	-0,998	-2,880E-4
244,950	-0,998	-4,626E-5
245,000	-0,998	-2,526E-4
245,050	-0,998	-1,099E-6
245,100	-0,998	-2,758E-4
245,150	-0,998	-2,733E-4
245,200	-0,998	-6,542E-4
245,250	-0,997	-7,068E-5
245,300	-0,997	-3,759E-4
245,350	-0,997	-2,673E-5
245,400	-0,997	-2,538E-4
245,450	-0,996	8,313E-5
245,500	-0,996	-3,319E-4
245,550	-0,996	2,576E-5
245,600	-0,996	-1,268E-4
245,650	-0,996	1,332E-4
245,700	-0,996	-7,190E-5
245,750	-0,997	-4,761E-6
245,800	-0,997	1,674E-4
245,850	-0,997	-1,195E-4
245,900	-0,997	-1,354E-4
245,950	-0,996	3,444E-4
246,000	-0,996	-1,708E-4
246,050	-0,996	7,458E-5
246,100	-0,995	1,088E-4
246,150	-0,995	1,564E-4
