Zeit (s) Messreihe #11	Spannung, Ch A (V) Messreihe #11	Spannung, Ch B (V) Messreihe #11
0,000	-0,999	-0,217
0,050	-0,998	-0,216
0,100	-0,999	-0,216
0,150	-0,998	-0,216
0,200	-0,998	-0,216
0,250	-0,998	-0,215
0,300	-0,998	-0,216
0,350	-0,999	-0,216
0,400	-0,999	-0,216
0,450	-0,998	-0,216
0,500	-0,996	-0,216
0,550	-0,995	-0,216
0,600	-0,994	-0,216
0,650	-0,994	-0,215
0,700	-0,994	-0,216
0,750	-0,991	-0,215
0,800	-0,987	-0,216
0,850	-0,983	-0,215
0,900	-0,978	-0,216
0,950	-0,975	-0,215
1,000	-0,974	-0,215
1,050	-0,974	-0,215
1,100	-0,974	-0,215
1,150	-0,974	-0,215
1,200	-0,974	-0,215
1,250	-0,974	-0,215
1,300	-0,974	-0,215
1,350	-0,974	-0,215
1,400	-0,974	-0,215
1,450	-0,971	-0,215
1,500	-0,965	-0,215
1,550	-0,960	-0,214
1,600	-0,957	-0,214
1,650	-0,954	-0,214
1,700	-0,951	-0,214
1,750	-0,948	-0,214
1,800	-0,942	-0,214
1,850	-0,936	-0,213
1,900	-0,935	-0,213
1,950	-0,935	-0,213
2,000	-0,935	-0,213
2,050	-0,934	-0,213
2,100	-0,935	-0,213
2,150	-0,934	-0,213
2,200	-0,931	-0,213
2,250	-0,925	-0,213
2,300	-0,916	-0,213
2,350	-0,908	-0,212
2,400	-0,900	-0,212
2,450	-0,892	-0,211
2,500	-0,888	-0,211
2,550	-0,887	-0,211
2,600	-0,887	-0,211
2,650	-0,887	-0,211
2,700	-0,887	-0,211
2,750	-0,887	-0,211
2,800	-0,887	-0,211
2,850	-0,886	-0,211
2,900	-0,882	-0,210
2,950	-0,877	-0,210
3,000	-0,873	-0,211
3,050	-0,868	-0,210
3,100	-0,863	-0,210
3,150	-0,856	-0,210
3,200	-0,849	-0,210
3,250	-0,845	-0,209
3,300	-0,844	-0,209
3,350	-0,844	-0,209
3,400	-0,843	-0,209
3,450	-0,844	-0,209
3,500	-0,844	-0,209
3,550	-0,841	-0,209
3,600	-0,837	-0,209
3,650	-0,834	-0,209
3,700	-0,830	-0,208
3,750	-0,825	-0,208
3,800	-0,819	-0,208
3,850	-0,812	-0,208
3,900	-0,805	-0,207
3,950	-0,801	-0,207
4,000	-0,800	-0,207
4,050	-0,800	-0,207
4,100	-0,800	-0,207
4,150	-0,800	-0,207
4,200	-0,799	-0,207
4,250	-0,797	-0,207
4,300	-0,792	-0,207
4,350	-0,786	-0,206
4,400	-0,780	-0,206
4,450	-0,774	-0,206
4,500	-0,769	-0,205
4,550	-0,764	-0,205
4,600	-0,760	-0,205
4,650	-0,759	-0,205
4,700	-0,759	-0,205
4,750	-0,759	-0,205
4,800	-0,759	-0,205
4,850	-0,759	-0,205
4,900	-0,759	-0,205
4,950	-0,758	-0,205
5,000	-0,751	-0,204
5,050	-0,745	-0,204
5,100	-0,739	-0,204
5,150	-0,731	-0,204
5,200	-0,723	-0,203
5,250	-0,717	-0,203
5,300	-0,716	-0,202
5,350	-0,716	-0,203
5,400	-0,716	-0,202
5,450	-0,716	-0,203
5,500	-0,715	-0,202
5,550	-0,715	-0,203
5,600	-0,711	-0,202
5,650	-0,707	-0,203
5,700	-0,701	-0,202
5,750	-0,695	-0,202
5,800	-0,691	-0,201
5,850	-0,686	-0,202
5,900	-0,679	-0,200
5,950	-0,672	-0,201
6,000	-0,667	-0,200
6,050	-0,665	-0,200
6,100	-0,665	-0,200
6,150	-0,665	-0,200
6,200	-0,665	-0,200
6,250	-0,665	-0,200
6,300	-0,665	-0,200
6,350	-0,665	-0,200
6,400	-0,655	-0,199
6,450	-0,642	-0,199
6,500	-0,632	-0,198
6,550	-0,625	-0,198
6,600	-0,622	-0,197
6,650	-0,620	-0,198
6,700	-0,619	-0,197
6,750	-0,620	-0,198
6,800	-0,619	-0,197
6,850	-0,620	-0,198
6,900	-0,619	-0,197
6,950	-0,618	-0,198
7,000	-0,611	-0,197
7,050	-0,605	-0,197
7,100	-0,599	-0,196
7,150	-0,593	-0,196
7,200	-0,588	-0,195
7,250	-0,584	-0,196
7,300	-0,579	-0,194
7,350	-0,578	-0,195
7,400	-0,578	-0,194
7,450	-0,579	-0,195
7,500	-0,578	-0,194
7,550	-0,579	-0,196
7,600	-0,578	-0,195
7,650	-0,578	-0,195
7,700	-0,578	-0,194
7,750	-0,579	-0,195
7,800	-0,576	-0,195
7,850	-0,571	-0,195
7,900	-0,568	-0,194
7,950	-0,562	-0,194
8,000	-0,555	-0,193
8,050	-0,549	-0,194
8,100	-0,545	-0,192
8,150	-0,544	-0,193
8,200	-0,544	-0,192
8,250	-0,544	-0,193
8,300	-0,544	-0,192
8,350	-0,544	-0,193
8,400	-0,544	-0,192
8,450	-0,543	-0,193
8,500	-0,544	-0,192
8,550	-0,541	-0,193
8,600	-0,533	-0,191
8,650	-0,527	-0,192
8,700	-0,523	-0,191
8,750	-0,515	-0,191
8,800	-0,509	-0,190
8,850	-0,506	-0,191
8,900	-0,504	-0,189
8,950	-0,502	-0,190
9,000	-0,496	-0,189
9,050	-0,491	-0,190
9,100	-0,489	-0,189
9,150	-0,489	-0,190
9,200	-0,489	-0,189
9,250	-0,489	-0,190
9,300	-0,489	-0,188
9,350	-0,489	-0,190
9,400	-0,488	-0,188
9,450	-0,489	-0,189
9,500	-0,489	-0,189
9,550	-0,487	-0,190
9,600	-0,480	-0,188
9,650	-0,475	-0,188
9,700	-0,475	-0,188
9,750	-0,472	-0,189
9,800	-0,466	-0,187
9,850	-0,458	-0,188
9,900	-0,447	-0,186
9,950	-0,440	-0,186
10,000	-0,435	-0,185
10,050	-0,433	-0,186
10,100	-0,431	-0,184
10,150	-0,431	-0,185
10,200	-0,432	-0,184
10,250	-0,431	-0,185
10,300	-0,432	-0,184
10,350	-0,431	-0,185
10,400	-0,427	-0,184
10,450	-0,423	-0,185
10,500	-0,417	-0,183
10,550	-0,408	-0,184
10,600	-0,399	-0,182
10,650	-0,391	-0,182
10,700	-0,384	-0,180
10,750	-0,377	-0,181
10,800	-0,374	-0,180
10,850	-0,374	-0,181
10,900	-0,374	-0,179
10,950	-0,373	-0,180
11,000	-0,373	-0,179
11,050	-0,373	-0,180
11,100	-0,374	-0,180
11,150	-0,373	-0,180
11,200	-0,372	-0,179
11,250	-0,368	-0,180
11,300	-0,362	-0,178
11,350	-0,354	-0,179
11,400	-0,345	-0,177
11,450	-0,339	-0,178
11,500	-0,329	-0,175
11,550	-0,321	-0,176
11,600	-0,319	-0,174
11,650	-0,318	-0,175
11,700	-0,318	-0,174
11,750	-0,318	-0,175
11,800	-0,318	-0,174
11,850	-0,317	-0,175
11,900	-0,315	-0,174
11,950	-0,306	-0,174
12,000	-0,296	-0,172
12,050	-0,290	-0,172
12,100	-0,284	-0,170
12,150	-0,279	-0,170
12,200	-0,274	-0,169
12,250	-0,273	-0,170
12,300	-0,272	-0,169
12,350	-0,272	-0,170
12,400	-0,272	-0,169
12,450	-0,272	-0,169
12,500	-0,272	-0,168
12,550	-0,272	-0,170
12,600	-0,272	-0,168
12,650	-0,272	-0,170
12,700	-0,271	-0,168
12,750	-0,268	-0,169
12,800	-0,265	-0,168
12,850	-0,262	-0,168
12,900	-0,258	-0,167
12,950	-0,254	-0,167
13,000	-0,249	-0,165
13,050	-0,242	-0,166
13,100	-0,235	-0,163
13,150	-0,228	-0,163
13,200	-0,225	-0,162
13,250	-0,224	-0,163
13,300	-0,223	-0,161
13,350	-0,223	-0,162
13,400	-0,223	-0,161
13,450	-0,223	-0,162
13,500	-0,222	-0,161
13,550	-0,220	-0,162
13,600	-0,216	-0,160
13,650	-0,212	-0,161
13,700	-0,206	-0,158
13,750	-0,200	-0,158
13,800	-0,195	-0,156
13,850	-0,192	-0,156
13,900	-0,188	-0,154
13,950	-0,185	-0,155
14,000	-0,183	-0,153
14,050	-0,182	-0,154
14,100	-0,182	-0,153
14,150	-0,181	-0,154
14,200	-0,181	-0,153
14,250	-0,181	-0,154
14,300	-0,181	-0,153
14,350	-0,178	-0,153
14,400	-0,175	-0,151
14,450	-0,173	-0,152
14,500	-0,170	-0,150
14,550	-0,165	-0,150
14,600	-0,163	-0,148
14,650	-0,162	-0,149
14,700	-0,161	-0,147
14,750	-0,160	-0,148
14,800	-0,160	-0,147
14,850	-0,160	-0,148
14,900	-0,160	-0,147
14,950	-0,160	-0,148
15,000	-0,160	-0,147
15,050	-0,160	-0,148
15,100	-0,160	-0,147
15,150	-0,160	-0,148
15,200	-0,160	-0,147
15,250	-0,160	-0,148
15,300	-0,160	-0,147
15,350	-0,160	-0,148
15,400	-0,160	-0,147
15,450	-0,160	-0,148
15,500	-0,160	-0,147
15,550	-0,160	-0,148
15,600	-0,160	-0,147
15,650	-0,159	-0,148
15,700	-0,157	-0,146
15,750	-0,154	-0,147
15,800	-0,152	-0,145
15,850	-0,151	-0,145
15,900	-0,151	-0,144
15,950	-0,150	-0,145
16,000	-0,149	-0,144
16,050	-0,146	-0,144
16,100	-0,143	-0,142
16,150	-0,142	-0,143
16,200	-0,141	-0,141
16,250	-0,141	-0,142
16,300	-0,140	-0,141
16,350	-0,140	-0,142
16,400	-0,140	-0,140
16,450	-0,140	-0,141
16,500	-0,140	-0,140
16,550	-0,138	-0,141
16,600	-0,136	-0,139
16,650	-0,135	-0,140
16,700	-0,134	-0,138
16,750	-0,133	-0,139
16,800	-0,133	-0,138
16,850	-0,132	-0,139
16,900	-0,131	-0,137
16,950	-0,129	-0,138
17,000	-0,128	-0,136
17,050	-0,126	-0,136
17,100	-0,126	-0,135
17,150	-0,124	-0,135
17,200	-0,122	-0,133
17,250	-0,120	-0,134
17,300	-0,118	-0,132
17,350	-0,116	-0,132
17,400	-0,113	-0,130
17,450	-0,112	-0,130
17,500	-0,111	-0,128
17,550	-0,110	-0,129
17,600	-0,109	-0,127
17,650	-0,106	-0,127
17,700	-0,102	-0,124
17,750	-0,098	-0,123
17,800	-0,095	-0,120
17,850	-0,091	-0,119
17,900	-0,089	-0,116
17,950	-0,087	-0,115
18,000	-0,086	-0,113
18,050	-0,085	-0,113
18,100	-0,084	-0,112
18,150	-0,083	-0,112
18,200	-0,082	-0,110
18,250	-0,078	-0,109
18,300	-0,076	-0,106
18,350	-0,074	-0,105
18,400	-0,073	-0,103
18,450	-0,071	-0,103
18,500	-0,070	-0,101
18,550	-0,068	-0,101
18,600	-0,067	-0,098
18,650	-0,065	-0,097
18,700	-0,063	-0,095
18,750	-0,062	-0,095
18,800	-0,061	-0,092
18,850	-0,060	-0,092
18,900	-0,059	-0,090
18,950	-0,059	-0,091
19,000	-0,058	-0,089
19,050	-0,056	-0,089
19,100	-0,051	-0,085
19,150	-0,047	-0,082
19,200	-0,043	-0,076
19,250	-0,040	-0,073
19,300	-0,037	-0,068
19,350	-0,035	-0,065
19,400	-0,034	-0,062
19,450	-0,031	-0,059
19,500	-0,030	-0,056
19,550	-0,029	-0,054
19,600	-0,027	-0,051
19,650	-0,024	-0,048
19,700	-0,021	-0,043
19,750	-0,019	-0,040
19,800	-0,017	-0,036
19,850	-0,016	-0,033
19,900	-0,015	-0,029
19,950	-0,013	-0,027
20,000	-0,012	-0,024
20,050	-0,007	-0,019
20,100	-2,028E-4	-0,009
20,150	0,002	-0,002
20,200	0,001	0,004
20,250	9,850E-4	0,006
20,300	9,032E-4	0,009
20,350	8,519E-4	0,010
20,400	8,495E-4	0,013
20,450	0,001	0,013
20,500	0,001	0,015
20,550	0,003	0,016
20,600	0,004	0,020
20,650	0,004	0,021
20,700	0,005	0,025
20,750	0,006	0,026
20,800	0,006	0,029
20,850	0,006	0,030
20,900	0,007	0,033
20,950	0,007	0,033
21,000	0,007	0,036
21,050	0,008	0,037
21,100	0,008	0,040
21,150	0,009	0,042
21,200	0,010	0,045
21,250	0,010	0,047
21,300	0,011	0,050
21,350	0,012	0,052
21,400	0,012	0,056
21,450	0,014	0,059
21,500	0,014	0,063
21,550	0,015	0,066
21,600	0,016	0,071
21,650	0,016	0,074
21,700	0,017	0,080
21,750	0,018	0,084
21,800	0,019	0,090
21,850	0,020	0,095
21,900	0,019	0,100
21,950	0,020	0,104
22,000	0,021	0,110
22,050	0,021	0,114
22,100	0,022	0,120
22,150	0,022	0,124
22,200	0,022	0,129
22,250	0,022	0,133
22,300	0,024	0,140
22,350	0,025	0,147
22,400	0,026	0,155
22,450	0,026	0,162
22,500	0,027	0,171
22,550	0,028	0,178
22,600	0,030	0,190
22,650	0,031	0,200
22,700	0,033	0,212
22,750	0,034	0,221
22,800	0,035	0,233
22,850	0,036	0,242
22,900	0,036	0,253
22,950	0,037	0,262
23,000	0,038	0,273
23,050	0,040	0,283
23,100	0,041	0,294
23,150	0,042	0,304
23,200	0,044	0,317
23,250	0,047	0,329
23,300	0,050	0,344
23,350	0,051	0,356
23,400	0,054	0,371
23,450	0,056	0,384
23,500	0,058	0,399
23,550	0,060	0,412
23,600	0,061	0,425
23,650	0,063	0,437
23,700	0,064	0,450
23,750	0,066	0,461
23,800	0,067	0,474
23,850	0,069	0,485
23,900	0,071	0,497
23,950	0,073	0,507
24,000	0,075	0,519
24,050	0,077	0,529
24,100	0,080	0,540
24,150	0,083	0,550
24,200	0,085	0,561
24,250	0,088	0,570
24,300	0,091	0,580
24,350	0,095	0,589
24,400	0,101	0,599
24,450	0,107	0,609
24,500	0,114	0,620
24,550	0,122	0,630
24,600	0,129	0,640
24,650	0,135	0,649
24,700	0,141	0,657
24,750	0,146	0,662
24,800	0,151	0,669
24,850	0,156	0,673
24,900	0,160	0,677
24,950	0,164	0,679
25,000	0,166	0,682
25,050	0,169	0,684
25,100	0,171	0,686
25,150	0,172	0,686
25,200	0,174	0,688
25,250	0,175	0,688
25,300	0,176	0,689
25,350	0,176	0,689
25,400	0,179	0,691
25,450	0,184	0,692
25,500	0,191	0,696
25,550	0,196	0,698
25,600	0,201	0,702
25,650	0,204	0,703
25,700	0,206	0,705
25,750	0,209	0,705
25,800	0,212	0,707
25,850	0,215	0,708
25,900	0,217	0,709
25,950	0,218	0,709
26,000	0,220	0,711
26,050	0,223	0,711
26,100	0,224	0,712
26,150	0,225	0,712
26,200	0,227	0,713
26,250	0,227	0,713
26,300	0,228	0,714
26,350	0,228	0,713
26,400	0,229	0,714
26,450	0,229	0,714
26,500	0,229	0,714
26,550	0,229	0,714
26,600	0,229	0,714
26,650	0,230	0,714
26,700	0,229	0,714
26,750	0,230	0,714
26,800	0,230	0,715
26,850	0,231	0,714
26,900	0,233	0,715
26,950	0,236	0,716
27,000	0,238	0,717
27,050	0,239	0,717
27,100	0,242	0,718
27,150	0,245	0,719
27,200	0,247	0,720
27,250	0,249	0,720
27,300	0,250	0,721
27,350	0,253	0,721
27,400	0,258	0,723
27,450	0,262	0,724
27,500	0,266	0,725
27,550	0,268	0,725
27,600	0,271	0,727
27,650	0,274	0,727
27,700	0,276	0,728
27,750	0,277	0,728
27,800	0,279	0,729
27,850	0,281	0,729
27,900	0,287	0,731
27,950	0,293	0,732
28,000	0,297	0,733
28,050	0,299	0,733
28,100	0,300	0,734
28,150	0,300	0,734
28,200	0,301	0,734
28,250	0,302	0,734
28,300	0,301	0,734
28,350	0,302	0,734
28,400	0,302	0,734
28,450	0,302	0,734
28,500	0,302	0,735
28,550	0,305	0,735
28,600	0,309	0,736
28,650	0,313	0,736
28,700	0,316	0,738
28,750	0,317	0,738
28,800	0,319	0,738
28,850	0,321	0,738
28,900	0,325	0,739
28,950	0,327	0,739
29,000	0,328	0,740
29,050	0,329	0,740
29,100	0,329	0,740
29,150	0,329	0,740
29,200	0,330	0,740
29,250	0,331	0,740
29,300	0,333	0,741
29,350	0,333	0,741
29,400	0,334	0,741
29,450	0,336	0,741
29,500	0,336	0,741
29,550	0,339	0,742
29,600	0,342	0,742
29,650	0,345	0,743
29,700	0,347	0,743
29,750	0,351	0,744
29,800	0,356	0,745
29,850	0,360	0,745
29,900	0,362	0,746
29,950	0,363	0,746
30,000	0,363	0,746
30,050	0,363	0,746
30,100	0,363	0,746
30,150	0,363	0,746
30,200	0,364	0,746
30,250	0,364	0,746
30,300	0,364	0,746
30,350	0,365	0,746
30,400	0,369	0,747
30,450	0,377	0,748
30,500	0,381	0,748
30,550	0,383	0,749
30,600	0,385	0,749
30,650	0,389	0,750
30,700	0,395	0,751
30,750	0,400	0,751
30,800	0,404	0,752
30,850	0,407	0,752
30,900	0,409	0,753
30,950	0,411	0,753
31,000	0,413	0,753
31,050	0,414	0,753
31,100	0,415	0,753
31,150	0,415	0,753
31,200	0,415	0,754
31,250	0,415	0,754
31,300	0,415	0,753
31,350	0,415	0,754
31,400	0,416	0,753
31,450	0,420	0,754
31,500	0,422	0,754
31,550	0,424	0,755
31,600	0,426	0,755
31,650	0,429	0,755
31,700	0,431	0,755
31,750	0,433	0,756
31,800	0,433	0,756
31,850	0,433	0,756
31,900	0,436	0,756
31,950	0,439	0,757
32,000	0,441	0,757
32,050	0,441	0,757
32,100	0,442	0,757
32,150	0,442	0,757
32,200	0,444	0,757
32,250	0,448	0,758
32,300	0,451	0,758
32,350	0,451	0,758
32,400	0,452	0,758
32,450	0,455	0,758
32,500	0,461	0,759
32,550	0,467	0,760
32,600	0,473	0,760
32,650	0,477	0,761
32,700	0,478	0,761
32,750	0,478	0,761
32,800	0,479	0,761
32,850	0,479	0,761
32,900	0,479	0,761
32,950	0,479	0,761
33,000	0,479	0,761
33,050	0,480	0,762
33,100	0,480	0,761
33,150	0,484	0,762
33,200	0,493	0,762
33,250	0,502	0,764
33,300	0,506	0,764
33,350	0,508	0,764
33,400	0,511	0,764
33,450	0,516	0,765
33,500	0,520	0,765
33,550	0,524	0,766
33,600	0,527	0,766
33,650	0,528	0,766
33,700	0,528	0,766
33,750	0,528	0,766
33,800	0,529	0,766
33,850	0,529	0,767
33,900	0,529	0,766
33,950	0,529	0,766
34,000	0,529	0,766
34,050	0,529	0,767
34,100	0,531	0,766
34,150	0,535	0,767
34,200	0,538	0,767
34,250	0,539	0,767
34,300	0,540	0,767
34,350	0,543	0,768
34,400	0,548	0,768
34,450	0,553	0,769
34,500	0,557	0,768
34,550	0,560	0,769
34,600	0,562	0,769
34,650	0,567	0,770
34,700	0,578	0,770
34,750	0,586	0,772
34,800	0,591	0,772
34,850	0,596	0,772
34,900	0,600	0,772
34,950	0,607	0,773
35,000	0,614	0,773
35,050	0,622	0,775
35,100	0,626	0,774
35,150	0,627	0,775
35,200	0,628	0,774
35,250	0,628	0,775
35,300	0,628	0,775
35,350	0,629	0,775
35,400	0,628	0,775
35,450	0,629	0,776
35,500	0,629	0,775
35,550	0,630	0,775
35,600	0,634	0,775
35,650	0,639	0,776
35,700	0,640	0,776
35,750	0,640	0,776
35,800	0,642	0,776
35,850	0,643	0,777
35,900	0,644	0,776
35,950	0,645	0,777
36,000	0,647	0,776
36,050	0,648	0,777
36,100	0,648	0,776
36,150	0,649	0,777
36,200	0,650	0,776
36,250	0,653	0,777
36,300	0,655	0,776
36,350	0,656	0,777
36,400	0,657	0,777
36,450	0,657	0,777
36,500	0,657	0,777
36,550	0,659	0,778
36,600	0,662	0,777
36,650	0,665	0,778
36,700	0,669	0,777
36,750	0,675	0,779
36,800	0,680	0,778
36,850	0,681	0,779
36,900	0,682	0,779
36,950	0,682	0,779
37,000	0,682	0,779
37,050	0,682	0,779
37,100	0,682	0,779
37,150	0,683	0,780
37,200	0,683	0,779
37,250	0,683	0,779
37,300	0,683	0,779
37,350	0,685	0,779
37,400	0,690	0,779
37,450	0,696	0,780
37,500	0,704	0,780
37,550	0,711	0,782
37,600	0,715	0,781
37,650	0,719	0,782
37,700	0,724	0,782
37,750	0,727	0,783
37,800	0,730	0,782
37,850	0,733	0,783
37,900	0,735	0,782
37,950	0,734	0,783
38,000	0,736	0,783
38,050	0,735	0,783
38,100	0,736	0,783
38,150	0,735	0,783
38,200	0,735	0,782
38,250	0,738	0,783
38,300	0,743	0,782
38,350	0,746	0,784
38,400	0,748	0,783
38,450	0,752	0,784
38,500	0,756	0,784
38,550	0,758	0,785
38,600	0,762	0,784
38,650	0,763	0,785
38,700	0,765	0,784
38,750	0,769	0,785
38,800	0,770	0,784
38,850	0,771	0,786
38,900	0,773	0,785
38,950	0,778	0,786
39,000	0,779	0,785
39,050	0,784	0,786
39,100	0,796	0,786
39,150	0,802	0,787
39,200	0,803	0,786
39,250	0,804	0,788
39,300	0,804	0,787
39,350	0,804	0,787
39,400	0,804	0,787
39,450	0,804	0,788
39,500	0,804	0,787
39,550	0,804	0,788
39,600	0,805	0,787
39,650	0,809	0,788
39,700	0,820	0,788
39,750	0,827	0,789
39,800	0,830	0,788
39,850	0,833	0,789
39,900	0,837	0,789
39,950	0,841	0,790
40,000	0,844	0,789
40,050	0,848	0,790
40,100	0,853	0,789
40,150	0,854	0,791
40,200	0,855	0,790
40,250	0,859	0,791
40,300	0,861	0,790
40,350	0,861	0,791
40,400	0,861	0,790
40,450	0,861	0,791
40,500	0,861	0,790
40,550	0,861	0,791
40,600	0,862	0,790
40,650	0,862	0,791
40,700	0,862	0,790
40,750	0,862	0,791
40,800	0,862	0,790
40,850	0,862	0,791
40,900	0,862	0,790
40,950	0,863	0,791
41,000	0,863	0,790
41,050	0,866	0,791
41,100	0,875	0,791
41,150	0,887	0,792
41,200	0,897	0,792
41,250	0,904	0,793
41,300	0,908	0,793
41,350	0,909	0,794
41,400	0,909	0,793
41,450	0,909	0,794
41,500	0,909	0,793
41,550	0,910	0,794
41,600	0,910	0,793
41,650	0,910	0,794
41,700	0,914	0,793
41,750	0,920	0,795
41,800	0,923	0,794
41,850	0,927	0,795
41,900	0,934	0,794
41,950	0,942	0,795
42,000	0,947	0,795
42,050	0,949	0,796
42,100	0,949	0,795
42,150	0,949	0,796
42,200	0,950	0,795
42,250	0,950	0,796
42,300	0,950	0,795
42,350	0,950	0,796
42,400	0,950	0,795
42,450	0,950	0,796
42,500	0,951	0,795
42,550	0,952	0,796
42,600	0,954	0,795
42,650	0,957	0,796
42,700	0,961	0,796
42,750	0,963	0,797
42,800	0,966	0,796
42,850	0,966	0,797
42,900	0,966	0,796
42,950	0,969	0,797
43,000	0,976	0,796
43,050	0,984	0,798
43,100	0,987	0,797
43,150	0,987	0,798
43,200	0,988	0,797
43,250	0,991	0,798
43,300	0,997	0,798
43,350	0,999	0,799
43,400	1,000	0,798
43,450	1,000	0,799
43,500	1,000	0,797
43,550	1,000	0,799
43,600	1,000	0,798
43,650	1,001	0,799
43,700	1,000	0,797
43,750	1,000	0,799
43,800	1,000	0,798
43,850	1,001	0,799
43,900	1,000	0,797
43,950	1,000	0,799
44,000	1,000	0,798
44,050	1,000	0,798
44,100	1,000	0,797
44,150	1,000	0,799
44,200	1,001	0,798
44,250	1,000	0,799
44,300	1,000	0,797
44,350	1,000	0,799
44,400	1,000	0,798
44,450	1,000	0,799
44,500	1,000	0,797
44,550	1,000	0,798
44,600	1,000	0,797
44,650	1,000	0,798
44,700	1,000	0,797
44,750	1,000	0,799
44,800	1,000	0,798
44,850	1,000	0,799
44,900	1,001	0,798
44,950	1,001	0,799
45,000	0,999	0,797
45,050	0,995	0,799
45,100	0,991	0,797
45,150	0,991	0,798
45,200	0,991	0,797
45,250	0,991	0,798
45,300	0,991	0,797
45,350	0,991	0,798
45,400	0,991	0,797
45,450	0,991	0,798
45,500	0,991	0,797
45,550	0,991	0,798
45,600	0,991	0,797
45,650	0,986	0,798
45,700	0,980	0,797
45,750	0,975	0,798
45,800	0,966	0,796
45,850	0,957	0,797
45,900	0,949	0,795
45,950	0,940	0,796
46,000	0,933	0,795
46,050	0,927	0,796
46,100	0,926	0,794
46,150	0,926	0,795
46,200	0,926	0,794
46,250	0,925	0,795
46,300	0,926	0,794
46,350	0,926	0,796
46,400	0,923	0,794
46,450	0,917	0,795
46,500	0,909	0,793
46,550	0,900	0,794
46,600	0,893	0,793
46,650	0,887	0,794
46,700	0,884	0,792
46,750	0,883	0,793
46,800	0,883	0,792
46,850	0,883	0,794
46,900	0,883	0,792
46,950	0,883	0,794
47,000	0,883	0,792
47,050	0,883	0,794
47,100	0,884	0,792
47,150	0,883	0,793
47,200	0,883	0,792
47,250	0,878	0,793
47,300	0,868	0,792
47,350	0,860	0,793
47,400	0,854	0,791
47,450	0,851	0,792
47,500	0,850	0,791
47,550	0,846	0,792
47,600	0,842	0,790
47,650	0,836	0,791
47,700	0,829	0,790
47,750	0,819	0,791
47,800	0,813	0,789
47,850	0,811	0,790
47,900	0,811	0,789
47,950	0,811	0,790
48,000	0,811	0,789
48,050	0,811	0,790
48,100	0,811	0,789
48,150	0,811	0,790
48,200	0,807	0,789
48,250	0,796	0,789
48,300	0,790	0,788
48,350	0,788	0,789
48,400	0,788	0,788
48,450	0,787	0,789
48,500	0,780	0,787
48,550	0,771	0,788
48,600	0,766	0,787
48,650	0,761	0,788
48,700	0,759	0,786
48,750	0,760	0,788
48,800	0,759	0,786
48,850	0,759	0,787
48,900	0,759	0,786
48,950	0,757	0,787
49,000	0,749	0,786
49,050	0,745	0,787
49,100	0,745	0,786
49,150	0,745	0,787
49,200	0,745	0,786
49,250	0,744	0,787
49,300	0,741	0,785
49,350	0,736	0,786
49,400	0,732	0,785
49,450	0,726	0,786
49,500	0,718	0,784
49,550	0,714	0,785
49,600	0,713	0,784
49,650	0,713	0,785
49,700	0,712	0,784
49,750	0,713	0,785
49,800	0,712	0,784
49,850	0,712	0,785
49,900	0,713	0,784
49,950	0,711	0,785
50,000	0,707	0,784
50,050	0,702	0,785
50,100	0,701	0,784
50,150	0,698	0,784
50,200	0,697	0,783
50,250	0,697	0,785
50,300	0,697	0,783
50,350	0,697	0,784
50,400	0,696	0,783
50,450	0,697	0,784
50,500	0,697	0,783
50,550	0,697	0,784
50,600	0,697	0,783
50,650	0,696	0,784
50,700	0,692	0,783
50,750	0,690	0,784
50,800	0,690	0,783
50,850	0,688	0,784
50,900	0,683	0,783
50,950	0,677	0,783
51,000	0,672	0,782
51,050	0,665	0,783
51,100	0,662	0,782
51,150	0,661	0,782
51,200	0,661	0,781
51,250	0,661	0,782
51,300	0,661	0,782
51,350	0,661	0,782
51,400	0,661	0,782
51,450	0,661	0,782
51,500	0,660	0,781
51,550	0,653	0,782
51,600	0,650	0,781
51,650	0,649	0,782
51,700	0,649	0,781
51,750	0,645	0,781
51,800	0,637	0,780
51,850	0,628	0,781
51,900	0,622	0,779
51,950	0,620	0,780
52,000	0,619	0,779
52,050	0,619	0,780
52,100	0,619	0,779
52,150	0,619	0,780
52,200	0,619	0,779
52,250	0,619	0,780
52,300	0,616	0,779
52,350	0,610	0,779
52,400	0,605	0,778
52,450	0,600	0,779
52,500	0,597	0,778
52,550	0,596	0,779
52,600	0,591	0,777
52,650	0,586	0,778
52,700	0,585	0,777
52,750	0,585	0,778
52,800	0,585	0,777
52,850	0,585	0,778
52,900	0,585	0,777
52,950	0,585	0,778
53,000	0,585	0,777
53,050	0,585	0,778
53,100	0,584	0,777
53,150	0,582	0,777
53,200	0,579	0,777
53,250	0,578	0,778
53,300	0,578	0,777
53,350	0,578	0,777
53,400	0,576	0,776
53,450	0,571	0,777
53,500	0,564	0,776
53,550	0,559	0,776
53,600	0,553	0,775
53,650	0,549	0,775
53,700	0,549	0,775
53,750	0,549	0,776
53,800	0,549	0,775
53,850	0,549	0,776
53,900	0,549	0,775
53,950	0,549	0,776
54,000	0,548	0,775
54,050	0,545	0,776
54,100	0,539	0,774
54,150	0,530	0,775
54,200	0,518	0,773
54,250	0,513	0,773
54,300	0,513	0,772
54,350	0,513	0,773
54,400	0,513	0,772
54,450	0,512	0,773
54,500	0,513	0,772
54,550	0,513	0,773
54,600	0,513	0,772
54,650	0,513	0,773
54,700	0,512	0,772
54,750	0,508	0,773
54,800	0,500	0,771
54,850	0,493	0,772
54,900	0,486	0,771
54,950	0,483	0,771
55,000	0,482	0,770
55,050	0,482	0,771
55,100	0,482	0,770
55,150	0,481	0,771
55,200	0,482	0,770
55,250	0,482	0,771
55,300	0,482	0,770
55,350	0,482	0,771
55,400	0,482	0,770
55,450	0,481	0,771
55,500	0,482	0,770
55,550	0,479	0,771
55,600	0,476	0,770
55,650	0,469	0,771
55,700	0,460	0,769
55,750	0,454	0,769
55,800	0,451	0,768
55,850	0,451	0,769
55,900	0,451	0,768
55,950	0,451	0,769
56,000	0,450	0,768
56,050	0,451	0,769
56,100	0,447	0,768
56,150	0,437	0,768
56,200	0,426	0,766
56,250	0,415	0,766
56,300	0,411	0,765
56,350	0,410	0,766
56,400	0,410	0,765
56,450	0,409	0,766
56,500	0,409	0,765
56,550	0,409	0,766
56,600	0,409	0,765
56,650	0,408	0,765
56,700	0,405	0,764
56,750	0,399	0,765
56,800	0,394	0,764
56,850	0,392	0,764
56,900	0,392	0,763
56,950	0,392	0,764
57,000	0,391	0,763
57,050	0,385	0,764
57,100	0,379	0,762
57,150	0,377	0,763
57,200	0,377	0,762
57,250	0,377	0,763
57,300	0,376	0,762
57,350	0,376	0,763
57,400	0,377	0,762
57,450	0,376	0,763
57,500	0,377	0,762
57,550	0,375	0,763
57,600	0,369	0,762
57,650	0,361	0,762
57,700	0,351	0,760
57,750	0,342	0,760
57,800	0,338	0,758
57,850	0,338	0,759
57,900	0,338	0,758
57,950	0,337	0,759
58,000	0,337	0,758
58,050	0,337	0,759
58,100	0,337	0,758
58,150	0,337	0,759
58,200	0,337	0,758
58,250	0,337	0,759
58,300	0,334	0,758
58,350	0,327	0,758
58,400	0,320	0,756
58,450	0,313	0,757
58,500	0,307	0,755
58,550	0,305	0,756
58,600	0,304	0,755
58,650	0,304	0,755
58,700	0,304	0,755
58,750	0,304	0,756
58,800	0,304	0,755
58,850	0,304	0,756
58,900	0,304	0,755
58,950	0,303	0,755
59,000	0,301	0,755
59,050	0,297	0,755
59,100	0,292	0,753
59,150	0,289	0,754
59,200	0,287	0,753
59,250	0,284	0,753
59,300	0,278	0,752
59,350	0,274	0,752
59,400	0,273	0,751
59,450	0,272	0,752
59,500	0,272	0,751
59,550	0,272	0,752
59,600	0,272	0,751
59,650	0,272	0,752
59,700	0,272	0,751
59,750	0,272	0,752
59,800	0,272	0,751
59,850	0,272	0,752
59,900	0,269	0,750
59,950	0,263	0,750
60,000	0,258	0,749
60,050	0,255	0,749
60,100	0,255	0,749
60,150	0,255	0,750
60,200	0,254	0,748
60,250	0,254	0,749
60,300	0,254	0,748
60,350	0,249	0,749
60,400	0,244	0,747
60,450	0,241	0,747
60,500	0,239	0,746
60,550	0,238	0,747
60,600	0,238	0,746
60,650	0,238	0,747
60,700	0,238	0,746
60,750	0,238	0,747
60,800	0,238	0,746
60,850	0,238	0,747
60,900	0,235	0,746
60,950	0,232	0,746
61,000	0,229	0,744
61,050	0,228	0,745
61,100	0,225	0,744
61,150	0,221	0,744
61,200	0,217	0,743
61,250	0,211	0,742
61,300	0,207	0,741
61,350	0,205	0,741
61,400	0,204	0,740
61,450	0,204	0,741
61,500	0,204	0,740
61,550	0,203	0,740
61,600	0,204	0,740
61,650	0,203	0,740
61,700	0,201	0,740
61,750	0,198	0,740
61,800	0,194	0,738
61,850	0,190	0,738
61,900	0,187	0,736
61,950	0,184	0,737
62,000	0,181	0,735
62,050	0,179	0,735
62,100	0,178	0,734
62,150	0,177	0,735
62,200	0,177	0,734
62,250	0,177	0,735
62,300	0,176	0,734
62,350	0,176	0,735
62,400	0,176	0,734
62,450	0,176	0,735
62,500	0,174	0,734
62,550	0,172	0,734
62,600	0,171	0,732
62,650	0,169	0,733
62,700	0,167	0,732
62,750	0,166	0,732
62,800	0,164	0,731
62,850	0,160	0,731
62,900	0,158	0,729
62,950	0,154	0,729
63,000	0,150	0,727
63,050	0,146	0,726
63,100	0,143	0,724
63,150	0,141	0,724
63,200	0,139	0,723
63,250	0,139	0,723
63,300	0,138	0,722
63,350	0,138	0,723
63,400	0,137	0,722
63,450	0,137	0,722
63,500	0,135	0,722
63,550	0,132	0,721
63,600	0,129	0,719
63,650	0,125	0,718
63,700	0,122	0,716
63,750	0,119	0,716
63,800	0,117	0,714
63,850	0,115	0,713
63,900	0,112	0,712
63,950	0,110	0,711
64,000	0,108	0,709
64,050	0,105	0,708
64,100	0,103	0,707
64,150	0,102	0,706
64,200	0,102	0,706
64,250	0,101	0,705
64,300	0,100	0,705
64,350	0,100	0,705
64,400	0,098	0,703
64,450	0,095	0,703
64,500	0,092	0,701
64,550	0,089	0,698
64,600	0,086	0,696
64,650	0,084	0,695
64,700	0,081	0,693
64,750	0,079	0,691
64,800	0,078	0,690
64,850	0,077	0,689
64,900	0,076	0,688
64,950	0,075	0,687
65,000	0,074	0,686
65,050	0,073	0,686
65,100	0,073	0,685
65,150	0,072	0,684
65,200	0,069	0,683
65,250	0,068	0,682
65,300	0,067	0,680
65,350	0,066	0,679
65,400	0,064	0,678
65,450	0,063	0,676
65,500	0,062	0,675
65,550	0,060	0,674
65,600	0,059	0,672
65,650	0,057	0,671
65,700	0,055	0,669
65,750	0,053	0,667
65,800	0,051	0,665
65,850	0,049	0,663
65,900	0,048	0,661
65,950	0,047	0,659
66,000	0,045	0,657
66,050	0,044	0,656
66,100	0,044	0,654
66,150	0,043	0,654
66,200	0,041	0,652
66,250	0,038	0,649
66,300	0,034	0,645
66,350	0,032	0,642
66,400	0,029	0,637
66,450	0,026	0,633
66,500	0,024	0,629
66,550	0,022	0,626
66,600	0,021	0,623
66,650	0,019	0,620
66,700	0,018	0,617
66,750	0,017	0,614
66,800	0,016	0,612
66,850	0,014	0,609
66,900	0,014	0,607
66,950	0,013	0,605
67,000	0,012	0,602
67,050	0,011	0,600
67,100	0,011	0,598
67,150	0,010	0,596
67,200	0,009	0,595
67,250	0,009	0,593
67,300	0,008	0,592
67,350	0,008	0,590
67,400	0,007	0,589
67,450	0,007	0,587
67,500	0,007	0,586
67,550	0,006	0,585
67,600	0,006	0,584
67,650	0,005	0,583
67,700	0,005	0,582
67,750	0,005	0,581
67,800	0,005	0,580
67,850	0,005	0,579
67,900	0,005	0,579
67,950	0,004	0,578
68,000	0,004	0,577
68,050	0,003	0,576
68,100	0,004	0,576
68,150	0,004	0,575
68,200	0,004	0,575
68,250	0,003	0,574
68,300	0,003	0,573
68,350	0,003	0,573
68,400	0,003	0,572
68,450	0,003	0,572
68,500	0,003	0,571
68,550	0,003	0,571
68,600	0,002	0,570
68,650	0,003	0,570
68,700	0,002	0,570
68,750	0,002	0,569
68,800	0,002	0,569
68,850	0,002	0,568
68,900	0,002	0,568
68,950	0,002	0,568
69,000	0,002	0,568
69,050	0,002	0,568
69,100	0,002	0,567
69,150	0,001	0,567
69,200	0,001	0,567
69,250	9,972E-4	0,566
69,300	8,934E-4	0,566
69,350	9,398E-4	0,565
69,400	9,276E-4	0,565
69,450	8,861E-4	0,565
69,500	0,001	0,565
69,550	0,001	0,564
69,600	0,001	0,565
69,650	7,836E-4	0,564
69,700	5,603E-5	0,564
69,750	-8,741E-4	0,562
69,800	-0,002	0,560
69,850	-0,004	0,557
69,900	-0,004	0,555
69,950	-0,005	0,552
70,000	-0,006	0,549
70,050	-0,007	0,546
70,100	-0,008	0,543
70,150	-0,009	0,539
70,200	-0,010	0,536
70,250	-0,011	0,532
70,300	-0,011	0,529
70,350	-0,012	0,525
70,400	-0,013	0,522
70,450	-0,013	0,518
70,500	-0,014	0,515
70,550	-0,015	0,511
70,600	-0,015	0,508
70,650	-0,015	0,503
70,700	-0,016	0,500
70,750	-0,016	0,495
70,800	-0,017	0,492
70,850	-0,017	0,487
70,900	-0,018	0,483
70,950	-0,019	0,478
71,000	-0,019	0,474
71,050	-0,019	0,468
71,100	-0,020	0,464
71,150	-0,020	0,458
71,200	-0,021	0,453
71,250	-0,022	0,446
71,300	-0,022	0,440
71,350	-0,023	0,433
71,400	-0,023	0,428
71,450	-0,024	0,421
71,500	-0,025	0,415
71,550	-0,024	0,409
71,600	-0,025	0,403
71,650	-0,025	0,397
71,700	-0,026	0,391
71,750	-0,026	0,385
71,800	-0,026	0,380
71,850	-0,027	0,374
71,900	-0,027	0,369
71,950	-0,028	0,362
72,000	-0,028	0,357
72,050	-0,028	0,351
72,100	-0,028	0,347
72,150	-0,029	0,341
72,200	-0,029	0,336
72,250	-0,030	0,330
72,300	-0,031	0,324
72,350	-0,032	0,316
72,400	-0,033	0,309
72,450	-0,033	0,302
72,500	-0,034	0,295
72,550	-0,034	0,288
72,600	-0,035	0,282
72,650	-0,035	0,275
72,700	-0,036	0,268
72,750	-0,037	0,261
72,800	-0,037	0,255
72,850	-0,038	0,248
72,900	-0,038	0,242
72,950	-0,039	0,234
73,000	-0,040	0,228
73,050	-0,040	0,221
73,100	-0,041	0,215
73,150	-0,042	0,208
73,200	-0,043	0,201
73,250	-0,044	0,193
73,300	-0,045	0,185
73,350	-0,046	0,178
73,400	-0,047	0,170
73,450	-0,048	0,162
73,500	-0,049	0,155
73,550	-0,050	0,147
73,600	-0,051	0,140
73,650	-0,053	0,131
73,700	-0,054	0,123
73,750	-0,055	0,115
73,800	-0,057	0,107
73,850	-0,058	0,099
73,900	-0,060	0,091
73,950	-0,062	0,083
74,000	-0,064	0,075
74,050	-0,065	0,067
74,100	-0,067	0,060
74,150	-0,068	0,053
74,200	-0,071	0,046
74,250	-0,073	0,038
74,300	-0,075	0,032
74,350	-0,077	0,025
74,400	-0,080	0,019
74,450	-0,082	0,011
74,500	-0,084	0,006
74,550	-0,087	-4,259E-4
74,600	-0,089	-0,005
74,650	-0,091	-0,011
74,700	-0,094	-0,016
74,750	-0,097	-0,022
74,800	-0,099	-0,026
74,850	-0,102	-0,031
74,900	-0,104	-0,035
74,950	-0,107	-0,040
75,000	-0,109	-0,043
75,050	-0,112	-0,048
75,100	-0,114	-0,051
75,150	-0,117	-0,055
75,200	-0,119	-0,057
75,250	-0,121	-0,061
75,300	-0,122	-0,062
75,350	-0,124	-0,065
75,400	-0,125	-0,066
75,450	-0,126	-0,068
75,500	-0,127	-0,069
75,550	-0,128	-0,070
75,600	-0,129	-0,071
75,650	-0,130	-0,072
75,700	-0,130	-0,072
75,750	-0,131	-0,074
75,800	-0,131	-0,074
75,850	-0,132	-0,075
75,900	-0,133	-0,075
75,950	-0,133	-0,076
76,000	-0,134	-0,076
76,050	-0,134	-0,077
76,100	-0,135	-0,077
76,150	-0,136	-0,078
76,200	-0,136	-0,078
76,250	-0,137	-0,079
76,300	-0,137	-0,079
76,350	-0,138	-0,081
76,400	-0,139	-0,080
76,450	-0,139	-0,082
76,500	-0,140	-0,081
76,550	-0,141	-0,083
76,600	-0,142	-0,083
76,650	-0,142	-0,084
76,700	-0,143	-0,084
76,750	-0,144	-0,086
76,800	-0,144	-0,085
76,850	-0,145	-0,086
76,900	-0,146	-0,086
76,950	-0,146	-0,087
77,000	-0,147	-0,087
77,050	-0,148	-0,089
77,100	-0,149	-0,089
77,150	-0,150	-0,090
77,200	-0,151	-0,090
77,250	-0,152	-0,092
77,300	-0,153	-0,092
77,350	-0,153	-0,093
77,400	-0,154	-0,093
77,450	-0,154	-0,094
77,500	-0,155	-0,093
77,550	-0,155	-0,094
77,600	-0,156	-0,094
77,650	-0,156	-0,095
77,700	-0,156	-0,094
77,750	-0,156	-0,095
77,800	-0,156	-0,094
77,850	-0,156	-0,095
77,900	-0,157	-0,095
77,950	-0,159	-0,097
78,000	-0,160	-0,096
78,050	-0,160	-0,098
78,100	-0,162	-0,098
78,150	-0,163	-0,099
78,200	-0,165	-0,100
78,250	-0,166	-0,101
78,300	-0,168	-0,102
78,350	-0,172	-0,104
78,400	-0,175	-0,106
78,450	-0,178	-0,108
78,500	-0,182	-0,109
78,550	-0,185	-0,112
78,600	-0,187	-0,113
78,650	-0,191	-0,115
78,700	-0,194	-0,116
78,750	-0,198	-0,119
78,800	-0,201	-0,120
78,850	-0,203	-0,122
78,900	-0,204	-0,121
78,950	-0,205	-0,123
79,000	-0,206	-0,122
79,050	-0,206	-0,123
79,100	-0,207	-0,123
79,150	-0,207	-0,124
79,200	-0,207	-0,123
79,250	-0,209	-0,124
79,300	-0,211	-0,124
79,350	-0,214	-0,126
79,400	-0,217	-0,127
79,450	-0,221	-0,129
79,500	-0,224	-0,129
79,550	-0,227	-0,131
79,600	-0,229	-0,131
79,650	-0,231	-0,133
79,700	-0,233	-0,133
79,750	-0,235	-0,134
79,800	-0,236	-0,134
79,850	-0,237	-0,135
79,900	-0,238	-0,134
79,950	-0,240	-0,136
80,000	-0,241	-0,135
80,050	-0,242	-0,137
80,100	-0,242	-0,136
80,150	-0,243	-0,137
80,200	-0,245	-0,137
80,250	-0,247	-0,138
80,300	-0,248	-0,138
80,350	-0,249	-0,139
80,400	-0,249	-0,138
80,450	-0,249	-0,139
80,500	-0,251	-0,138
80,550	-0,255	-0,140
80,600	-0,258	-0,140
80,650	-0,260	-0,142
80,700	-0,261	-0,142
80,750	-0,262	-0,143
80,800	-0,262	-0,142
80,850	-0,262	-0,143
80,900	-0,262	-0,142
80,950	-0,263	-0,143
81,000	-0,263	-0,142
81,050	-0,263	-0,143
81,100	-0,262	-0,142
81,150	-0,263	-0,143
81,200	-0,265	-0,142
81,250	-0,268	-0,144
81,300	-0,270	-0,144
81,350	-0,270	-0,145
81,400	-0,271	-0,144
81,450	-0,272	-0,145
81,500	-0,275	-0,145
81,550	-0,275	-0,146
81,600	-0,277	-0,146
81,650	-0,281	-0,147
81,700	-0,284	-0,147
81,750	-0,288	-0,149
81,800	-0,292	-0,149
81,850	-0,294	-0,151
81,900	-0,295	-0,150
81,950	-0,296	-0,151
82,000	-0,296	-0,150
82,050	-0,296	-0,151
82,100	-0,297	-0,150
82,150	-0,300	-0,152
82,200	-0,306	-0,152
82,250	-0,313	-0,155
82,300	-0,320	-0,155
82,350	-0,327	-0,158
82,400	-0,333	-0,158
82,450	-0,337	-0,159
82,500	-0,340	-0,159
82,550	-0,343	-0,161
82,600	-0,345	-0,160
82,650	-0,347	-0,161
82,700	-0,349	-0,161
82,750	-0,350	-0,162
82,800	-0,354	-0,161
82,850	-0,360	-0,163
82,900	-0,367	-0,163
82,950	-0,374	-0,166
83,000	-0,377	-0,165
83,050	-0,379	-0,167
83,100	-0,380	-0,166
83,150	-0,380	-0,167
83,200	-0,380	-0,166
83,250	-0,380	-0,167
83,300	-0,380	-0,166
83,350	-0,386	-0,168
83,400	-0,397	-0,168
83,450	-0,404	-0,170
83,500	-0,410	-0,170
83,550	-0,415	-0,172
83,600	-0,418	-0,171
83,650	-0,419	-0,172
83,700	-0,420	-0,171
83,750	-0,422	-0,172
83,800	-0,426	-0,172
83,850	-0,431	-0,174
83,900	-0,434	-0,173
83,950	-0,435	-0,174
84,000	-0,435	-0,173
84,050	-0,435	-0,174
84,100	-0,436	-0,173
84,150	-0,436	-0,174
84,200	-0,436	-0,173
84,250	-0,436	-0,174
84,300	-0,436	-0,173
84,350	-0,437	-0,174
84,400	-0,441	-0,174
84,450	-0,445	-0,175
84,500	-0,445	-0,175
84,550	-0,446	-0,176
84,600	-0,449	-0,175
84,650	-0,450	-0,176
84,700	-0,450	-0,175
84,750	-0,450	-0,176
84,800	-0,450	-0,175
84,850	-0,451	-0,176
84,900	-0,458	-0,176
84,950	-0,461	-0,177
85,000	-0,462	-0,176
85,050	-0,462	-0,177
85,100	-0,463	-0,177
85,150	-0,467	-0,178
85,200	-0,468	-0,177
85,250	-0,469	-0,178
85,300	-0,469	-0,177
85,350	-0,469	-0,178
85,400	-0,469	-0,177
85,450	-0,469	-0,178
85,500	-0,469	-0,177
85,550	-0,469	-0,178
85,600	-0,469	-0,177
85,650	-0,469	-0,178
85,700	-0,469	-0,177
85,750	-0,469	-0,178
85,800	-0,469	-0,177
85,850	-0,470	-0,178
85,900	-0,474	-0,178
85,950	-0,481	-0,179
86,000	-0,485	-0,179
86,050	-0,486	-0,180
86,100	-0,490	-0,179
86,150	-0,499	-0,181
86,200	-0,511	-0,181
86,250	-0,517	-0,183
86,300	-0,518	-0,182
86,350	-0,518	-0,183
86,400	-0,519	-0,183
86,450	-0,520	-0,183
86,500	-0,520	-0,183
86,550	-0,520	-0,184
86,600	-0,520	-0,183
86,650	-0,520	-0,183
86,700	-0,520	-0,183
86,750	-0,521	-0,184
86,800	-0,522	-0,183
86,850	-0,526	-0,184
86,900	-0,536	-0,184
86,950	-0,543	-0,185
87,000	-0,546	-0,185
87,050	-0,548	-0,186
87,100	-0,552	-0,185
87,150	-0,557	-0,187
87,200	-0,560	-0,186
87,250	-0,561	-0,187
87,300	-0,561	-0,186
87,350	-0,561	-0,187
87,400	-0,561	-0,186
87,450	-0,561	-0,188
87,500	-0,561	-0,186
87,550	-0,561	-0,187
87,600	-0,561	-0,186
87,650	-0,561	-0,187
87,700	-0,561	-0,186
87,750	-0,561	-0,187
87,800	-0,561	-0,186
87,850	-0,561	-0,187
87,900	-0,561	-0,186
87,950	-0,562	-0,187
88,000	-0,561	-0,186
88,050	-0,562	-0,188
88,100	-0,561	-0,186
88,150	-0,564	-0,188
88,200	-0,575	-0,188
88,250	-0,585	-0,189
88,300	-0,592	-0,189
88,350	-0,600	-0,191
88,400	-0,605	-0,190
88,450	-0,605	-0,191
88,500	-0,605	-0,190
88,550	-0,606	-0,191
88,600	-0,606	-0,190
88,650	-0,606	-0,191
88,700	-0,606	-0,190
88,750	-0,606	-0,191
88,800	-0,606	-0,190
88,850	-0,606	-0,191
88,900	-0,608	-0,190
88,950	-0,613	-0,192
89,000	-0,618	-0,191
89,050	-0,621	-0,193
89,100	-0,623	-0,192
89,150	-0,625	-0,193
89,200	-0,628	-0,192
89,250	-0,630	-0,193
89,300	-0,634	-0,192
89,350	-0,638	-0,194
89,400	-0,642	-0,193
89,450	-0,645	-0,194
89,500	-0,649	-0,194
89,550	-0,653	-0,195
89,600	-0,655	-0,194
89,650	-0,655	-0,195
89,700	-0,656	-0,194
89,750	-0,656	-0,195
89,800	-0,656	-0,194
89,850	-0,656	-0,195
89,900	-0,656	-0,194
89,950	-0,656	-0,195
90,000	-0,656	-0,194
90,050	-0,656	-0,195
90,100	-0,656	-0,194
90,150	-0,657	-0,195
90,200	-0,659	-0,194
90,250	-0,659	-0,195
90,300	-0,660	-0,195
90,350	-0,661	-0,195
90,400	-0,663	-0,195
90,450	-0,665	-0,196
90,500	-0,668	-0,195
90,550	-0,669	-0,196
90,600	-0,670	-0,195
90,650	-0,675	-0,197
90,700	-0,677	-0,196
90,750	-0,678	-0,197
90,800	-0,681	-0,196
90,850	-0,688	-0,197
90,900	-0,692	-0,197
90,950	-0,695	-0,198
91,000	-0,698	-0,197
91,050	-0,700	-0,198
91,100	-0,700	-0,197
91,150	-0,700	-0,198
91,200	-0,700	-0,197
91,250	-0,700	-0,198
91,300	-0,700	-0,197
91,350	-0,700	-0,198
91,400	-0,703	-0,197
91,450	-0,712	-0,199
91,500	-0,719	-0,199
91,550	-0,726	-0,200
91,600	-0,732	-0,199
91,650	-0,737	-0,201
91,700	-0,740	-0,200
91,750	-0,743	-0,201
91,800	-0,745	-0,200
91,850	-0,747	-0,201
91,900	-0,748	-0,200
91,950	-0,748	-0,201
92,000	-0,748	-0,200
92,050	-0,748	-0,202
92,100	-0,748	-0,201
92,150	-0,748	-0,202
92,200	-0,748	-0,201
92,250	-0,748	-0,202
92,300	-0,749	-0,201
92,350	-0,749	-0,201
92,400	-0,749	-0,201
92,450	-0,754	-0,202
92,500	-0,760	-0,201
92,550	-0,762	-0,202
92,600	-0,762	-0,201
92,650	-0,762	-0,203
92,700	-0,764	-0,201
92,750	-0,767	-0,203
92,800	-0,770	-0,202
92,850	-0,773	-0,203
92,900	-0,774	-0,202
92,950	-0,777	-0,203
93,000	-0,784	-0,202
93,050	-0,789	-0,204
93,100	-0,792	-0,203
93,150	-0,792	-0,204
93,200	-0,792	-0,203
93,250	-0,792	-0,204
93,300	-0,792	-0,203
93,350	-0,792	-0,204
93,400	-0,793	-0,203
93,450	-0,793	-0,204
93,500	-0,792	-0,203
93,550	-0,793	-0,204
93,600	-0,793	-0,203
93,650	-0,794	-0,205
93,700	-0,796	-0,203
93,750	-0,802	-0,205
93,800	-0,812	-0,204
93,850	-0,821	-0,206
93,900	-0,825	-0,205
93,950	-0,826	-0,206
94,000	-0,829	-0,205
94,050	-0,834	-0,207
94,100	-0,840	-0,206
94,150	-0,844	-0,207
94,200	-0,845	-0,206
94,250	-0,845	-0,207
94,300	-0,845	-0,207
94,350	-0,845	-0,207
94,400	-0,845	-0,206
94,450	-0,846	-0,208
94,500	-0,846	-0,207
94,550	-0,849	-0,207
94,600	-0,855	-0,207
94,650	-0,863	-0,208
94,700	-0,869	-0,208
94,750	-0,870	-0,209
94,800	-0,870	-0,208
94,850	-0,870	-0,209
94,900	-0,872	-0,208
94,950	-0,875	-0,209
95,000	-0,878	-0,208
95,050	-0,879	-0,209
95,100	-0,879	-0,208
95,150	-0,879	-0,209
95,200	-0,881	-0,209
95,250	-0,883	-0,209
95,300	-0,885	-0,209
95,350	-0,886	-0,210
95,400	-0,888	-0,209
95,450	-0,891	-0,210
95,500	-0,897	-0,209
95,550	-0,900	-0,210
95,600	-0,900	-0,210
95,650	-0,901	-0,211
95,700	-0,901	-0,210
95,750	-0,901	-0,210
95,800	-0,900	-0,209
95,850	-0,901	-0,211
95,900	-0,901	-0,210
95,950	-0,901	-0,211
96,000	-0,901	-0,210
96,050	-0,905	-0,211
96,100	-0,914	-0,210
96,150	-0,925	-0,212
96,200	-0,933	-0,211
96,250	-0,938	-0,212
96,300	-0,943	-0,212
96,350	-0,947	-0,213
96,400	-0,946	-0,212
96,450	-0,945	-0,213
96,500	-0,945	-0,212
96,550	-0,945	-0,213
96,600	-0,945	-0,212
96,650	-0,945	-0,213
96,700	-0,945	-0,212
96,750	-0,946	-0,213
96,800	-0,949	-0,212
96,850	-0,952	-0,213
96,900	-0,958	-0,213
96,950	-0,963	-0,214
97,000	-0,964	-0,213
97,050	-0,967	-0,214
97,100	-0,970	-0,213
97,150	-0,974	-0,214
97,200	-0,977	-0,214
97,250	-0,980	-0,215
97,300	-0,981	-0,214
97,350	-0,981	-0,215
97,400	-0,982	-0,214
97,450	-0,984	-0,215
97,500	-0,985	-0,214
97,550	-0,987	-0,215
97,600	-0,989	-0,214
97,650	-0,990	-0,215
97,700	-0,992	-0,215
97,750	-0,994	-0,215
97,800	-0,998	-0,215
97,850	-0,999	-0,216
97,900	-0,999	-0,215
97,950	-0,999	-0,216
98,000	-0,999	-0,215
98,050	-0,999	-0,215
98,100	-0,999	-0,215
98,150	-0,999	-0,216
98,200	-0,999	-0,215
98,250	-0,999	-0,216
98,300	-0,999	-0,215
98,350	-0,999	-0,215
98,400	-0,999	-0,215
98,450	-0,999	-0,216
98,500	-0,999	-0,215
98,550	-0,999	-0,216
98,600	-0,999	-0,215
98,650	-0,999	-0,215
98,700	-0,999	-0,215
98,750	-0,999	-0,216
98,800	-0,999	-0,215
98,850	-0,999	-0,215
98,900	-0,999	-0,215
98,950	-0,999	-0,216
99,000	-0,999	-0,215
99,050	-0,999	-0,216
99,100	-0,999	-0,215
99,150	-0,999	-0,216
99,200	-0,999	-0,215
99,250	-0,999	-0,215
99,300	-0,999	-0,215
99,350	-0,999	-0,216
99,400	-0,999	-0,215
99,450	-0,999	-0,216
99,500	-0,999	-0,215
99,550	-0,999	-0,215
99,600	-0,999	-0,215
99,650	-0,999	-0,216
99,700	-0,999	-0,215
99,750	-0,999	-0,215
99,800	-0,999	-0,215
99,850	-0,999	-0,216
99,900	-0,999	-0,215
99,950	-0,999	-0,216
100,000	-0,999	-0,215
100,050	-0,999	-0,215
100,100	-0,999	-0,215
100,150	-0,999	-0,215
100,200	-0,999	-0,215
100,250	-0,999	-0,216
100,300	-0,999	-0,215
100,350	-0,999	-0,215
100,400	-0,999	-0,215
100,450	-0,999	-0,215
100,500	-0,999	-0,215
100,550	-0,999	-0,216
100,600	-0,999	-0,215
100,650	-0,998	-0,215
100,700	-0,999	-0,215
100,750	-0,999	-0,215
100,800	-0,999	-0,215
100,850	-0,999	-0,216
100,900	-0,999	-0,215
100,950	-0,999	-0,215
101,000	-0,999	-0,215
101,050	-0,999	-0,215
101,100	-0,999	-0,215
101,150	-0,999	-0,215
101,200	-0,999	-0,215
101,250	-0,999	-0,215
101,300	-0,999	-0,215
101,350	-0,999	-0,215
101,400	-0,999	-0,215
101,450	-0,999	-0,215
101,500	-0,999	-0,215
101,550	-0,999	-0,215
101,600	-0,999	-0,215
101,650	-0,998	-0,215
101,700	-0,999	-0,215
101,750	-0,999	-0,215
101,800	-0,999	-0,215
101,850	-0,998	-0,215
101,900	-0,999	-0,215
101,950	-0,998	-0,215
102,000	-0,999	-0,215
102,050	-0,998	-0,215
102,100	-0,998	-0,215
102,150	-0,999	-0,215
102,200	-0,999	-0,215
102,250	-0,998	-0,215
102,300	-0,999	-0,215
102,350	-0,999	-0,215
102,400	-0,999	-0,215
102,450	-0,999	-0,215
102,500	-0,998	-0,215
102,550	-0,999	-0,215
102,600	-0,999	-0,215
102,650	-0,999	-0,215
102,700	-0,999	-0,215
102,750	-0,999	-0,215
102,800	-0,999	-0,215
102,850	-0,999	-0,215
102,900	-0,998	-0,215
102,950	-0,999	-0,215
103,000	-0,999	-0,215
103,050	-0,999	-0,215
103,100	-0,999	-0,215
103,150	-0,999	-0,215
103,200	-0,999	-0,215
103,250	-0,999	-0,215
103,300	-0,999	-0,215
103,350	-0,999	-0,215
103,400	-0,999	-0,215
103,450	-0,999	-0,215
103,500	-0,999	-0,215
103,550	-0,998	-0,215
103,600	-0,990	-0,215
103,650	-0,980	-0,214
103,700	-0,979	-0,214
103,750	-0,979	-0,214
103,800	-0,980	-0,214
103,850	-0,976	-0,214
103,900	-0,971	-0,214
103,950	-0,967	-0,214
104,000	-0,964	-0,214
104,050	-0,959	-0,214
104,100	-0,951	-0,213
104,150	-0,949	-0,213
104,200	-0,949	-0,213
104,250	-0,948	-0,213
104,300	-0,948	-0,213
104,350	-0,948	-0,213
104,400	-0,948	-0,213
104,450	-0,948	-0,213
104,500	-0,949	-0,213
104,550	-0,945	-0,213
104,600	-0,937	-0,212
104,650	-0,934	-0,213
104,700	-0,934	-0,212
104,750	-0,934	-0,212
104,800	-0,934	-0,212
104,850	-0,934	-0,212
104,900	-0,930	-0,212
104,950	-0,923	-0,212
105,000	-0,920	-0,212
105,050	-0,919	-0,212
105,100	-0,919	-0,211
105,150	-0,919	-0,212
105,200	-0,919	-0,211
105,250	-0,919	-0,212
105,300	-0,918	-0,211
105,350	-0,915	-0,211
105,400	-0,913	-0,211
105,450	-0,912	-0,212
105,500	-0,910	-0,211
105,550	-0,908	-0,211
105,600	-0,907	-0,211
105,650	-0,907	-0,211
105,700	-0,907	-0,211
105,750	-0,907	-0,211
105,800	-0,907	-0,211
105,850	-0,907	-0,211
105,900	-0,907	-0,211
105,950	-0,907	-0,211
106,000	-0,905	-0,211
106,050	-0,903	-0,211
106,100	-0,901	-0,210
106,150	-0,901	-0,211
106,200	-0,901	-0,211
106,250	-0,901	-0,211
106,300	-0,901	-0,211
106,350	-0,898	-0,211
106,400	-0,895	-0,210
106,450	-0,893	-0,211
106,500	-0,892	-0,210
106,550	-0,890	-0,210
106,600	-0,890	-0,210
106,650	-0,890	-0,210
106,700	-0,889	-0,210
106,750	-0,885	-0,210
106,800	-0,883	-0,210
106,850	-0,882	-0,210
106,900	-0,882	-0,210
106,950	-0,882	-0,210
107,000	-0,882	-0,210
107,050	-0,882	-0,210
107,100	-0,882	-0,210
107,150	-0,882	-0,210
107,200	-0,882	-0,210
107,250	-0,882	-0,210
107,300	-0,882	-0,210
107,350	-0,880	-0,210
107,400	-0,880	-0,210
107,450	-0,879	-0,210
107,500	-0,876	-0,209
107,550	-0,871	-0,209
107,600	-0,866	-0,209
107,650	-0,865	-0,209
107,700	-0,865	-0,209
107,750	-0,864	-0,209
107,800	-0,863	-0,209
107,850	-0,863	-0,209
107,900	-0,862	-0,209
107,950	-0,861	-0,209
108,000	-0,860	-0,209
108,050	-0,858	-0,209
108,100	-0,855	-0,209
108,150	-0,852	-0,209
108,200	-0,847	-0,208
108,250	-0,843	-0,208
108,300	-0,836	-0,208
108,350	-0,830	-0,208
108,400	-0,829	-0,207
108,450	-0,829	-0,208
108,500	-0,829	-0,207
108,550	-0,829	-0,207
108,600	-0,829	-0,208
108,650	-0,829	-0,207
108,700	-0,829	-0,207
108,750	-0,829	-0,207
108,800	-0,827	-0,207
108,850	-0,822	-0,207
108,900	-0,819	-0,207
108,950	-0,817	-0,207
109,000	-0,815	-0,207
109,050	-0,813	-0,207
109,100	-0,811	-0,207
109,150	-0,808	-0,206
109,200	-0,805	-0,206
109,250	-0,804	-0,207
109,300	-0,803	-0,206
109,350	-0,804	-0,206
109,400	-0,803	-0,206
109,450	-0,804	-0,206
109,500	-0,804	-0,206
109,550	-0,804	-0,206
109,600	-0,804	-0,206
109,650	-0,803	-0,206
109,700	-0,798	-0,206
109,750	-0,793	-0,206
109,800	-0,791	-0,205
109,850	-0,791	-0,205
109,900	-0,791	-0,206
109,950	-0,786	-0,205
110,000	-0,783	-0,205
110,050	-0,781	-0,205
110,100	-0,781	-0,205
110,150	-0,781	-0,205
110,200	-0,781	-0,205
110,250	-0,781	-0,205
110,300	-0,781	-0,205
110,350	-0,781	-0,205
110,400	-0,781	-0,205
110,450	-0,781	-0,205
110,500	-0,777	-0,205
110,550	-0,768	-0,205
110,600	-0,763	-0,204
110,650	-0,761	-0,204
110,700	-0,758	-0,204
110,750	-0,753	-0,204
110,800	-0,750	-0,204
110,850	-0,749	-0,204
110,900	-0,749	-0,204
110,950	-0,749	-0,204
111,000	-0,749	-0,203
111,050	-0,749	-0,203
111,100	-0,749	-0,203
111,150	-0,749	-0,203
111,200	-0,747	-0,204
111,250	-0,743	-0,204
111,300	-0,738	-0,203
111,350	-0,734	-0,203
111,400	-0,731	-0,203
111,450	-0,730	-0,203
111,500	-0,729	-0,202
111,550	-0,730	-0,203
111,600	-0,729	-0,202
111,650	-0,729	-0,202
111,700	-0,729	-0,202
111,750	-0,730	-0,203
111,800	-0,729	-0,203
111,850	-0,729	-0,202
111,900	-0,726	-0,202
111,950	-0,723	-0,202
112,000	-0,719	-0,202
112,050	-0,717	-0,201
112,100	-0,714	-0,202
112,150	-0,712	-0,202
112,200	-0,710	-0,202
112,250	-0,709	-0,201
112,300	-0,709	-0,201
112,350	-0,709	-0,201
112,400	-0,709	-0,201
112,450	-0,709	-0,202
112,500	-0,709	-0,201
112,550	-0,709	-0,201
112,600	-0,709	-0,201
112,650	-0,709	-0,201
112,700	-0,708	-0,201
112,750	-0,703	-0,201
112,800	-0,697	-0,201
112,850	-0,696	-0,201
112,900	-0,696	-0,201
112,950	-0,696	-0,201
113,000	-0,696	-0,201
113,050	-0,696	-0,201
113,100	-0,696	-0,201
113,150	-0,696	-0,201
113,200	-0,696	-0,201
113,250	-0,695	-0,200
113,300	-0,691	-0,201
113,350	-0,688	-0,200
113,400	-0,685	-0,200
113,450	-0,683	-0,200
113,500	-0,682	-0,200
113,550	-0,681	-0,200
113,600	-0,679	-0,200
113,650	-0,678	-0,200
113,700	-0,677	-0,200
113,750	-0,677	-0,200
113,800	-0,678	-0,200
113,850	-0,678	-0,200
113,900	-0,678	-0,200
113,950	-0,678	-0,200
114,000	-0,677	-0,200
114,050	-0,678	-0,200
114,100	-0,677	-0,200
114,150	-0,677	-0,200
114,200	-0,677	-0,200
114,250	-0,674	-0,200
114,300	-0,670	-0,199
114,350	-0,666	-0,199
114,400	-0,665	-0,199
114,450	-0,664	-0,199
114,500	-0,664	-0,199
114,550	-0,661	-0,199
114,600	-0,658	-0,199
114,650	-0,657	-0,199
114,700	-0,656	-0,199
114,750	-0,657	-0,199
114,800	-0,656	-0,199
114,850	-0,656	-0,198
114,900	-0,656	-0,199
114,950	-0,656	-0,198
115,000	-0,656	-0,199
115,050	-0,656	-0,198
115,100	-0,649	-0,198
115,150	-0,643	-0,198
115,200	-0,638	-0,198
115,250	-0,633	-0,197
115,300	-0,631	-0,197
115,350	-0,630	-0,197
115,400	-0,630	-0,197
115,450	-0,631	-0,197
115,500	-0,630	-0,197
115,550	-0,630	-0,197
115,600	-0,630	-0,197
115,650	-0,630	-0,197
115,700	-0,630	-0,197
115,750	-0,626	-0,197
115,800	-0,618	-0,197
115,850	-0,612	-0,196
115,900	-0,609	-0,196
115,950	-0,609	-0,196
116,000	-0,608	-0,196
116,050	-0,608	-0,196
116,100	-0,608	-0,196
116,150	-0,607	-0,196
116,200	-0,605	-0,196
116,250	-0,602	-0,196
116,300	-0,600	-0,195
116,350	-0,600	-0,195
116,400	-0,599	-0,195
116,450	-0,600	-0,195
116,500	-0,599	-0,195
116,550	-0,599	-0,195
116,600	-0,599	-0,195
116,650	-0,599	-0,195
116,700	-0,599	-0,195
116,750	-0,599	-0,195
116,800	-0,599	-0,195
116,850	-0,597	-0,195
116,900	-0,594	-0,195
116,950	-0,593	-0,195
117,000	-0,591	-0,195
117,050	-0,590	-0,195
117,100	-0,588	-0,195
117,150	-0,587	-0,195
117,200	-0,587	-0,195
117,250	-0,587	-0,194
117,300	-0,588	-0,195
117,350	-0,587	-0,194
117,400	-0,587	-0,195
117,450	-0,587	-0,194
117,500	-0,587	-0,195
117,550	-0,587	-0,194
117,600	-0,587	-0,195
117,650	-0,584	-0,194
117,700	-0,582	-0,194
117,750	-0,582	-0,194
117,800	-0,582	-0,195
117,850	-0,580	-0,194
117,900	-0,579	-0,194
117,950	-0,578	-0,194
118,000	-0,577	-0,194
118,050	-0,576	-0,194
118,100	-0,576	-0,194
118,150	-0,575	-0,194
118,200	-0,571	-0,194
118,250	-0,567	-0,193
118,300	-0,566	-0,193
118,350	-0,566	-0,193
118,400	-0,565	-0,193
118,450	-0,566	-0,193
118,500	-0,565	-0,193
118,550	-0,566	-0,193
118,600	-0,565	-0,193
118,650	-0,565	-0,193
118,700	-0,566	-0,193
118,750	-0,565	-0,193
118,800	-0,561	-0,193
118,850	-0,558	-0,193
118,900	-0,558	-0,193
118,950	-0,556	-0,192
119,000	-0,554	-0,193
119,050	-0,552	-0,192
119,100	-0,546	-0,192
119,150	-0,543	-0,192
119,200	-0,541	-0,192
119,250	-0,540	-0,191
119,300	-0,539	-0,192
119,350	-0,539	-0,191
119,400	-0,539	-0,192
119,450	-0,539	-0,191
119,500	-0,539	-0,192
119,550	-0,539	-0,191
119,600	-0,539	-0,192
119,650	-0,539	-0,191
119,700	-0,537	-0,192
119,750	-0,530	-0,191
119,800	-0,524	-0,191
119,850	-0,521	-0,190
119,900	-0,520	-0,191
119,950	-0,518	-0,190
120,000	-0,518	-0,190
120,050	-0,515	-0,189
120,100	-0,514	-0,190
120,150	-0,513	-0,190
120,200	-0,511	-0,190
120,250	-0,510	-0,190
120,300	-0,509	-0,190
120,350	-0,509	-0,189
120,400	-0,509	-0,190
120,450	-0,509	-0,189
120,500	-0,509	-0,190
120,550	-0,509	-0,189
120,600	-0,509	-0,190
120,650	-0,509	-0,189
120,700	-0,507	-0,190
120,750	-0,503	-0,189
120,800	-0,499	-0,189
120,850	-0,498	-0,189
120,900	-0,495	-0,189
120,950	-0,493	-0,188
121,000	-0,492	-0,189
121,050	-0,490	-0,188
121,100	-0,488	-0,188
121,150	-0,488	-0,187
121,200	-0,488	-0,189
121,250	-0,488	-0,188
121,300	-0,488	-0,189
121,350	-0,488	-0,188
121,400	-0,488	-0,188
121,450	-0,488	-0,188
121,500	-0,488	-0,188
121,550	-0,487	-0,188
121,600	-0,485	-0,188
121,650	-0,482	-0,187
121,700	-0,481	-0,188
121,750	-0,480	-0,187
121,800	-0,477	-0,188
121,850	-0,476	-0,187
121,900	-0,476	-0,188
121,950	-0,476	-0,187
122,000	-0,476	-0,188
122,050	-0,476	-0,187
122,100	-0,476	-0,188
122,150	-0,476	-0,187
122,200	-0,476	-0,188
122,250	-0,476	-0,187
122,300	-0,476	-0,188
122,350	-0,476	-0,187
122,400	-0,474	-0,187
122,450	-0,472	-0,187
122,500	-0,470	-0,187
122,550	-0,469	-0,186
122,600	-0,468	-0,187
122,650	-0,466	-0,186
122,700	-0,465	-0,187
122,750	-0,464	-0,186
122,800	-0,463	-0,187
122,850	-0,461	-0,186
122,900	-0,457	-0,186
122,950	-0,454	-0,185
123,000	-0,453	-0,186
123,050	-0,452	-0,185
123,100	-0,452	-0,186
123,150	-0,452	-0,185
123,200	-0,453	-0,186
123,250	-0,452	-0,185
123,300	-0,452	-0,186
123,350	-0,452	-0,185
123,400	-0,452	-0,186
123,450	-0,452	-0,185
123,500	-0,451	-0,186
123,550	-0,447	-0,185
123,600	-0,444	-0,185
123,650	-0,441	-0,184
123,700	-0,437	-0,184
123,750	-0,434	-0,184
123,800	-0,433	-0,185
123,850	-0,433	-0,184
123,900	-0,433	-0,184
123,950	-0,433	-0,184
124,000	-0,433	-0,184
124,050	-0,433	-0,184
124,100	-0,433	-0,184
124,150	-0,433	-0,184
124,200	-0,432	-0,184
124,250	-0,429	-0,183
124,300	-0,425	-0,184
124,350	-0,421	-0,183
124,400	-0,417	-0,183
124,450	-0,414	-0,182
124,500	-0,411	-0,183
124,550	-0,410	-0,181
124,600	-0,411	-0,183
124,650	-0,411	-0,182
124,700	-0,411	-0,183
124,750	-0,411	-0,182
124,800	-0,411	-0,183
124,850	-0,411	-0,182
124,900	-0,410	-0,183
124,950	-0,406	-0,181
125,000	-0,402	-0,182
125,050	-0,399	-0,181
125,100	-0,398	-0,182
125,150	-0,396	-0,180
125,200	-0,395	-0,181
125,250	-0,394	-0,180
125,300	-0,391	-0,181
125,350	-0,389	-0,180
125,400	-0,388	-0,181
125,450	-0,388	-0,180
125,500	-0,387	-0,180
125,550	-0,385	-0,180
125,600	-0,384	-0,180
125,650	-0,384	-0,179
125,700	-0,384	-0,180
125,750	-0,384	-0,180
125,800	-0,384	-0,181
125,850	-0,384	-0,179
125,900	-0,384	-0,180
125,950	-0,384	-0,180
126,000	-0,384	-0,180
126,050	-0,384	-0,179
126,100	-0,383	-0,181
126,150	-0,381	-0,179
126,200	-0,379	-0,180
126,250	-0,378	-0,179
126,300	-0,378	-0,180
126,350	-0,376	-0,179
126,400	-0,374	-0,180
126,450	-0,373	-0,178
126,500	-0,371	-0,179
126,550	-0,369	-0,178
126,600	-0,368	-0,179
126,650	-0,366	-0,178
126,700	-0,365	-0,179
126,750	-0,365	-0,178
126,800	-0,365	-0,179
126,850	-0,365	-0,178
126,900	-0,364	-0,179
126,950	-0,365	-0,178
127,000	-0,365	-0,179
127,050	-0,365	-0,178
127,100	-0,365	-0,179
127,150	-0,364	-0,178
127,200	-0,362	-0,178
127,250	-0,359	-0,177
127,300	-0,355	-0,178
127,350	-0,352	-0,176
127,400	-0,350	-0,177
127,450	-0,349	-0,176
127,500	-0,347	-0,177
127,550	-0,344	-0,175
127,600	-0,341	-0,177
127,650	-0,339	-0,175
127,700	-0,338	-0,176
127,750	-0,338	-0,175
127,800	-0,338	-0,176
127,850	-0,338	-0,175
127,900	-0,338	-0,176
127,950	-0,338	-0,175
128,000	-0,338	-0,176
128,050	-0,338	-0,175
128,100	-0,338	-0,176
128,150	-0,338	-0,175
128,200	-0,335	-0,176
128,250	-0,331	-0,174
128,300	-0,327	-0,175
128,350	-0,323	-0,173
128,400	-0,320	-0,174
128,450	-0,319	-0,173
128,500	-0,319	-0,174
128,550	-0,319	-0,173
128,600	-0,319	-0,174
128,650	-0,319	-0,173
128,700	-0,319	-0,174
128,750	-0,319	-0,173
128,800	-0,319	-0,174
128,850	-0,319	-0,173
128,900	-0,319	-0,174
128,950	-0,316	-0,173
129,000	-0,311	-0,173
129,050	-0,308	-0,172
129,100	-0,306	-0,173
129,150	-0,305	-0,172
129,200	-0,304	-0,173
129,250	-0,302	-0,171
129,300	-0,300	-0,172
129,350	-0,300	-0,171
129,400	-0,300	-0,172
129,450	-0,300	-0,171
129,500	-0,300	-0,172
129,550	-0,300	-0,171
129,600	-0,300	-0,172
129,650	-0,300	-0,171
129,700	-0,299	-0,172
129,750	-0,297	-0,171
129,800	-0,294	-0,171
129,850	-0,292	-0,170
129,900	-0,290	-0,171
129,950	-0,289	-0,169
130,000	-0,288	-0,171
130,050	-0,286	-0,169
130,100	-0,285	-0,170
130,150	-0,285	-0,169
130,200	-0,285	-0,170
130,250	-0,285	-0,169
130,300	-0,285	-0,170
130,350	-0,285	-0,169
130,400	-0,285	-0,170
130,450	-0,285	-0,169
130,500	-0,285	-0,170
130,550	-0,285	-0,169
130,600	-0,285	-0,170
130,650	-0,284	-0,169
130,700	-0,281	-0,170
130,750	-0,277	-0,168
130,800	-0,276	-0,169
130,850	-0,273	-0,167
130,900	-0,272	-0,169
130,950	-0,270	-0,167
131,000	-0,268	-0,168
131,050	-0,265	-0,166
131,100	-0,264	-0,168
131,150	-0,263	-0,166
131,200	-0,263	-0,167
131,250	-0,263	-0,166
131,300	-0,263	-0,167
131,350	-0,263	-0,166
131,400	-0,263	-0,167
131,450	-0,263	-0,166
131,500	-0,263	-0,167
131,550	-0,263	-0,166
131,600	-0,262	-0,167
131,650	-0,258	-0,166
131,700	-0,252	-0,166
131,750	-0,249	-0,164
131,800	-0,248	-0,165
131,850	-0,247	-0,164
131,900	-0,247	-0,165
131,950	-0,247	-0,164
132,000	-0,246	-0,165
132,050	-0,245	-0,164
132,100	-0,244	-0,165
132,150	-0,243	-0,163
132,200	-0,241	-0,164
132,250	-0,239	-0,163
132,300	-0,238	-0,164
132,350	-0,237	-0,163
132,400	-0,235	-0,163
132,450	-0,235	-0,162
132,500	-0,235	-0,163
132,550	-0,235	-0,162
132,600	-0,235	-0,163
132,650	-0,235	-0,162
132,700	-0,235	-0,163
132,750	-0,234	-0,162
132,800	-0,235	-0,163
132,850	-0,233	-0,162
132,900	-0,231	-0,163
132,950	-0,230	-0,161
133,000	-0,228	-0,162
133,050	-0,225	-0,160
133,100	-0,221	-0,161
133,150	-0,218	-0,159
133,200	-0,215	-0,160
133,250	-0,214	-0,159
133,300	-0,212	-0,159
133,350	-0,211	-0,158
133,400	-0,210	-0,159
133,450	-0,209	-0,158
133,500	-0,207	-0,159
133,550	-0,206	-0,157
133,600	-0,204	-0,158
133,650	-0,204	-0,157
133,700	-0,204	-0,158
133,750	-0,204	-0,157
133,800	-0,204	-0,158
133,850	-0,204	-0,157
133,900	-0,204	-0,158
133,950	-0,204	-0,157
134,000	-0,203	-0,158
134,050	-0,197	-0,156
134,100	-0,192	-0,155
134,150	-0,187	-0,153
134,200	-0,183	-0,153
134,250	-0,182	-0,152
134,300	-0,181	-0,153
134,350	-0,180	-0,152
134,400	-0,180	-0,153
134,450	-0,180	-0,151
134,500	-0,180	-0,152
134,550	-0,180	-0,151
134,600	-0,179	-0,152
134,650	-0,179	-0,151
134,700	-0,179	-0,152
134,750	-0,178	-0,151
134,800	-0,177	-0,152
134,850	-0,176	-0,151
134,900	-0,174	-0,151
134,950	-0,173	-0,150
135,000	-0,172	-0,151
135,050	-0,170	-0,149
135,100	-0,169	-0,150
135,150	-0,168	-0,149
135,200	-0,168	-0,149
135,250	-0,167	-0,148
135,300	-0,167	-0,149
135,350	-0,166	-0,148
135,400	-0,164	-0,148
135,450	-0,163	-0,147
135,500	-0,161	-0,148
135,550	-0,160	-0,146
135,600	-0,159	-0,147
135,650	-0,158	-0,145
135,700	-0,158	-0,147
135,750	-0,158	-0,145
135,800	-0,157	-0,146
135,850	-0,157	-0,145
135,900	-0,157	-0,146
135,950	-0,157	-0,145
136,000	-0,157	-0,146
136,050	-0,157	-0,145
136,100	-0,153	-0,146
136,150	-0,146	-0,143
136,200	-0,139	-0,141
136,250	-0,133	-0,138
136,300	-0,129	-0,137
136,350	-0,126	-0,135
136,400	-0,124	-0,135
136,450	-0,123	-0,133
136,500	-0,122	-0,134
136,550	-0,122	-0,132
136,600	-0,121	-0,133
136,650	-0,121	-0,132
136,700	-0,121	-0,133
136,750	-0,120	-0,132
136,800	-0,120	-0,133
136,850	-0,120	-0,132
136,900	-0,120	-0,133
136,950	-0,120	-0,131
137,000	-0,120	-0,133
137,050	-0,118	-0,131
137,100	-0,114	-0,131
137,150	-0,110	-0,128
137,200	-0,107	-0,127
137,250	-0,105	-0,125
137,300	-0,102	-0,124
137,350	-0,100	-0,122
137,400	-0,098	-0,122
137,450	-0,097	-0,120
137,500	-0,096	-0,120
137,550	-0,095	-0,118
137,600	-0,095	-0,119
137,650	-0,095	-0,118
137,700	-0,094	-0,119
137,750	-0,094	-0,118
137,800	-0,094	-0,118
137,850	-0,092	-0,116
137,900	-0,092	-0,118
137,950	-0,090	-0,115
138,000	-0,089	-0,116
138,050	-0,087	-0,114
138,100	-0,086	-0,114
138,150	-0,085	-0,112
138,200	-0,084	-0,112
138,250	-0,082	-0,110
138,300	-0,080	-0,110
138,350	-0,078	-0,107
138,400	-0,077	-0,107
138,450	-0,076	-0,105
138,500	-0,076	-0,106
138,550	-0,075	-0,104
138,600	-0,074	-0,104
138,650	-0,074	-0,103
138,700	-0,074	-0,104
138,750	-0,073	-0,102
138,800	-0,073	-0,103
138,850	-0,071	-0,101
138,900	-0,070	-0,101
138,950	-0,068	-0,098
139,000	-0,067	-0,099
139,050	-0,066	-0,096
139,100	-0,065	-0,097
139,150	-0,064	-0,095
139,200	-0,062	-0,094
139,250	-0,061	-0,092
139,300	-0,059	-0,091
139,350	-0,056	-0,088
139,400	-0,053	-0,086
139,450	-0,051	-0,083
139,500	-0,050	-0,082
139,550	-0,048	-0,079
139,600	-0,047	-0,079
139,650	-0,046	-0,075
139,700	-0,045	-0,076
139,750	-0,044	-0,073
139,800	-0,042	-0,073
139,850	-0,040	-0,069
139,900	-0,037	-0,067
139,950	-0,034	-0,063
140,000	-0,032	-0,061
140,050	-0,030	-0,056
140,100	-0,028	-0,053
140,150	-0,026	-0,049
140,200	-0,025	-0,048
140,250	-0,023	-0,044
140,300	-0,022	-0,043
140,350	-0,021	-0,039
140,400	-0,020	-0,038
140,450	-0,020	-0,036
140,500	-0,018	-0,034
140,550	-0,016	-0,030
140,600	-0,014	-0,028
140,650	-0,013	-0,025
140,700	-0,012	-0,023
140,750	-0,011	-0,020
140,800	-0,010	-0,019
140,850	-0,009	-0,015
140,900	-0,009	-0,015
140,950	-0,008	-0,012
141,000	-0,008	-0,011
141,050	-0,007	-0,009
141,100	-0,007	-0,008
141,150	-0,006	-0,005
141,200	-0,006	-0,005
141,250	-0,005	-0,003
141,300	-0,005	-0,003
141,350	-0,004	-8,167E-5
141,400	-0,004	-4,479E-4
141,450	-0,004	0,001
141,500	-0,004	0,002
141,550	-0,004	0,004
141,600	-0,003	0,003
141,650	-0,003	0,005
141,700	-0,003	0,005
141,750	-0,003	0,007
141,800	-0,002	0,006
141,850	-0,002	0,008
141,900	-0,002	0,008
141,950	-0,002	0,009
142,000	-0,002	0,009
142,050	-0,002	0,011
142,100	-0,001	0,010
142,150	-0,001	0,012
142,200	-9,926E-4	0,011
142,250	-0,001	0,013
142,300	-9,840E-4	0,012
142,350	-6,752E-4	0,014
142,400	-7,533E-4	0,013
142,450	-4,347E-4	0,014
142,500	-6,031E-4	0,013
142,550	-1,869E-4	0,015
142,600	-1,356E-4	0,014
142,650	3,380E-4	0,016
142,700	0,001	0,016
142,750	9,191E-4	0,018
142,800	7,848E-4	0,017
142,850	0,001	0,019
142,900	9,240E-4	0,018
142,950	8,031E-4	0,020
143,000	9,044E-4	0,019
143,050	9,886E-4	0,020
143,100	0,001	0,019
143,150	7,616E-4	0,020
143,200	9,752E-4	0,019
143,250	0,001	0,021
143,300	0,002	0,020
143,350	0,003	0,023
143,400	0,003	0,023
143,450	0,004	0,026
143,500	0,005	0,027
143,550	0,006	0,031
143,600	0,006	0,031
143,650	0,007	0,035
143,700	0,008	0,036
143,750	0,009	0,041
143,800	0,010	0,042
143,850	0,011	0,047
143,900	0,011	0,049
143,950	0,012	0,054
144,000	0,013	0,055
144,050	0,014	0,060
144,100	0,014	0,062
144,150	0,015	0,066
144,200	0,015	0,069
144,250	0,016	0,074
144,300	0,016	0,076
144,350	0,017	0,081
144,400	0,017	0,083
144,450	0,017	0,087
144,500	0,018	0,090
144,550	0,018	0,094
144,600	0,018	0,096
144,650	0,018	0,100
144,700	0,019	0,102
144,750	0,019	0,107
144,800	0,019	0,108
144,850	0,019	0,113
144,900	0,019	0,114
144,950	0,020	0,118
145,000	0,020	0,120
145,050	0,020	0,124
145,100	0,020	0,126
145,150	0,020	0,130
145,200	0,021	0,131
145,250	0,021	0,135
145,300	0,021	0,137
145,350	0,021	0,141
145,400	0,021	0,142
145,450	0,021	0,146
145,500	0,021	0,147
145,550	0,022	0,151
145,600	0,022	0,153
145,650	0,022	0,156
145,700	0,022	0,158
145,750	0,022	0,162
145,800	0,023	0,164
145,850	0,022	0,168
145,900	0,023	0,170
145,950	0,023	0,174
146,000	0,023	0,176
146,050	0,023	0,180
146,100	0,024	0,182
146,150	0,024	0,187
146,200	0,024	0,188
146,250	0,024	0,192
146,300	0,024	0,194
146,350	0,025	0,198
146,400	0,025	0,200
146,450	0,025	0,205
146,500	0,025	0,206
146,550	0,025	0,211
146,600	0,026	0,213
146,650	0,026	0,217
146,700	0,026	0,219
146,750	0,026	0,223
146,800	0,026	0,226
146,850	0,027	0,230
146,900	0,027	0,232
146,950	0,027	0,236
147,000	0,027	0,238
147,050	0,027	0,243
147,100	0,027	0,245
147,150	0,028	0,249
147,200	0,028	0,251
147,250	0,028	0,256
147,300	0,028	0,258
147,350	0,029	0,262
147,400	0,029	0,265
147,450	0,029	0,269
147,500	0,029	0,271
147,550	0,029	0,276
147,600	0,030	0,279
147,650	0,030	0,284
147,700	0,030	0,286
147,750	0,031	0,291
147,800	0,031	0,294
147,850	0,031	0,299
147,900	0,032	0,302
147,950	0,032	0,307
148,000	0,032	0,310
148,050	0,033	0,315
148,100	0,033	0,318
148,150	0,033	0,323
148,200	0,034	0,327
148,250	0,034	0,332
148,300	0,035	0,335
148,350	0,036	0,341
148,400	0,036	0,344
148,450	0,036	0,350
148,500	0,037	0,354
148,550	0,037	0,360
148,600	0,038	0,363
148,650	0,038	0,369
148,700	0,039	0,373
148,750	0,040	0,380
148,800	0,040	0,384
148,850	0,041	0,390
148,900	0,041	0,394
148,950	0,042	0,400
149,000	0,043	0,404
149,050	0,043	0,410
149,100	0,043	0,413
149,150	0,044	0,419
149,200	0,044	0,422
149,250	0,045	0,428
149,300	0,045	0,431
149,350	0,046	0,436
149,400	0,046	0,439
149,450	0,046	0,444
149,500	0,047	0,447
149,550	0,048	0,451
149,600	0,049	0,455
149,650	0,049	0,460
149,700	0,050	0,463
149,750	0,050	0,468
149,800	0,051	0,471
149,850	0,052	0,477
149,900	0,053	0,480
149,950	0,054	0,485
150,000	0,054	0,487
150,050	0,055	0,492
150,100	0,056	0,495
150,150	0,058	0,501
150,200	0,058	0,504
150,250	0,059	0,509
150,300	0,060	0,511
150,350	0,061	0,516
150,400	0,061	0,518
150,450	0,063	0,523
150,500	0,064	0,525
150,550	0,065	0,530
150,600	0,066	0,532
150,650	0,067	0,538
150,700	0,068	0,540
150,750	0,069	0,545
150,800	0,070	0,547
150,850	0,071	0,552
150,900	0,072	0,553
150,950	0,073	0,557
151,000	0,074	0,559
151,050	0,074	0,562
151,100	0,075	0,563
151,150	0,076	0,567
151,200	0,077	0,568
151,250	0,078	0,571
151,300	0,079	0,573
151,350	0,080	0,576
151,400	0,081	0,577
151,450	0,082	0,581
151,500	0,083	0,582
151,550	0,084	0,585
151,600	0,085	0,586
151,650	0,086	0,589
151,700	0,086	0,589
151,750	0,087	0,592
151,800	0,087	0,592
151,850	0,088	0,595
151,900	0,089	0,595
151,950	0,089	0,597
152,000	0,089	0,597
152,050	0,090	0,600
152,100	0,092	0,600
152,150	0,092	0,603
152,200	0,093	0,603
152,250	0,093	0,605
152,300	0,094	0,605
152,350	0,094	0,608
152,400	0,095	0,607
152,450	0,095	0,609
152,500	0,095	0,609
152,550	0,096	0,611
152,600	0,096	0,611
152,650	0,097	0,612
152,700	0,097	0,612
152,750	0,097	0,613
152,800	0,097	0,612
152,850	0,097	0,614
152,900	0,098	0,614
152,950	0,098	0,615
153,000	0,099	0,615
153,050	0,099	0,616
153,100	0,100	0,616
153,150	0,100	0,618
153,200	0,100	0,617
153,250	0,101	0,619
153,300	0,101	0,618
153,350	0,101	0,620
153,400	0,101	0,619
153,450	0,102	0,621
153,500	0,102	0,620
153,550	0,102	0,621
153,600	0,103	0,621
153,650	0,103	0,623
153,700	0,104	0,622
153,750	0,104	0,624
153,800	0,104	0,623
153,850	0,104	0,624
153,900	0,105	0,623
153,950	0,105	0,625
154,000	0,105	0,624
154,050	0,106	0,626
154,100	0,106	0,625
154,150	0,105	0,626
154,200	0,106	0,625
154,250	0,106	0,627
154,300	0,106	0,626
154,350	0,106	0,627
154,400	0,106	0,626
154,450	0,106	0,627
154,500	0,106	0,626
154,550	0,106	0,628
154,600	0,107	0,627
154,650	0,107	0,628
154,700	0,107	0,627
154,750	0,107	0,628
154,800	0,107	0,627
154,850	0,107	0,629
154,900	0,108	0,628
154,950	0,107	0,629
155,000	0,108	0,628
155,050	0,108	0,629
155,100	0,108	0,628
155,150	0,108	0,629
155,200	0,108	0,628
155,250	0,108	0,630
155,300	0,108	0,629
155,350	0,109	0,630
155,400	0,109	0,629
155,450	0,109	0,630
155,500	0,109	0,629
155,550	0,109	0,631
155,600	0,109	0,630
155,650	0,109	0,631
155,700	0,109	0,630
155,750	0,110	0,631
155,800	0,110	0,630
155,850	0,110	0,632
155,900	0,110	0,631
155,950	0,110	0,632
156,000	0,110	0,631
156,050	0,111	0,633
156,100	0,111	0,632
156,150	0,110	0,633
156,200	0,111	0,632
156,250	0,111	0,633
156,300	0,111	0,632
156,350	0,111	0,634
156,400	0,111	0,633
156,450	0,112	0,634
156,500	0,112	0,633
156,550	0,111	0,634
156,600	0,112	0,633
156,650	0,112	0,634
156,700	0,112	0,634
156,750	0,112	0,635
156,800	0,112	0,634
156,850	0,112	0,635
156,900	0,112	0,634
156,950	0,113	0,635
157,000	0,113	0,634
157,050	0,113	0,635
157,100	0,113	0,634
157,150	0,113	0,636
157,200	0,113	0,634
157,250	0,113	0,636
157,300	0,113	0,635
157,350	0,113	0,636
157,400	0,113	0,635
157,450	0,113	0,636
157,500	0,113	0,635
157,550	0,113	0,636
157,600	0,114	0,635
157,650	0,114	0,637
157,700	0,114	0,636
157,750	0,114	0,637
157,800	0,114	0,636
157,850	0,114	0,637
157,900	0,114	0,636
157,950	0,114	0,637
158,000	0,115	0,637
158,050	0,115	0,638
158,100	0,115	0,637
158,150	0,115	0,638
158,200	0,115	0,637
158,250	0,115	0,638
158,300	0,115	0,637
158,350	0,115	0,638
158,400	0,115	0,637
158,450	0,115	0,638
158,500	0,115	0,637
158,550	0,115	0,639
158,600	0,115	0,638
158,650	0,115	0,639
158,700	0,115	0,637
158,750	0,115	0,639
158,800	0,115	0,638
158,850	0,115	0,639
158,900	0,116	0,638
158,950	0,116	0,639
159,000	0,116	0,638
159,050	0,117	0,640
159,100	0,117	0,639
159,150	0,117	0,641
159,200	0,118	0,640
159,250	0,118	0,641
159,300	0,118	0,641
159,350	0,119	0,642
159,400	0,119	0,641
159,450	0,119	0,643
159,500	0,119	0,642
159,550	0,120	0,643
159,600	0,120	0,642
159,650	0,120	0,644
159,700	0,120	0,643
159,750	0,120	0,644
159,800	0,120	0,643
159,850	0,121	0,645
159,900	0,121	0,644
159,950	0,122	0,646
160,000	0,122	0,645
160,050	0,122	0,646
160,100	0,122	0,645
160,150	0,122	0,647
160,200	0,122	0,646
160,250	0,122	0,647
160,300	0,123	0,646
160,350	0,122	0,647
160,400	0,122	0,646
160,450	0,123	0,647
160,500	0,123	0,646
160,550	0,123	0,647
160,600	0,123	0,646
160,650	0,123	0,648
160,700	0,123	0,647
160,750	0,123	0,648
160,800	0,123	0,647
160,850	0,123	0,648
160,900	0,123	0,647
160,950	0,123	0,648
161,000	0,123	0,647
161,050	0,123	0,648
161,100	0,123	0,647
161,150	0,123	0,648
161,200	0,123	0,647
161,250	0,124	0,648
161,300	0,124	0,647
161,350	0,124	0,648
161,400	0,124	0,647
161,450	0,123	0,648
161,500	0,124	0,647
161,550	0,124	0,648
161,600	0,124	0,647
161,650	0,123	0,648
161,700	0,124	0,647
161,750	0,124	0,648
161,800	0,124	0,647
161,850	0,123	0,648
161,900	0,123	0,647
161,950	0,124	0,648
162,000	0,123	0,647
162,050	0,124	0,649
162,100	0,123	0,647
162,150	0,124	0,648
162,200	0,124	0,648
162,250	0,124	0,649
162,300	0,124	0,648
162,350	0,124	0,649
162,400	0,124	0,647
162,450	0,124	0,649
162,500	0,124	0,647
162,550	0,124	0,648
162,600	0,124	0,647
162,650	0,123	0,648
162,700	0,123	0,647
162,750	0,124	0,649
162,800	0,124	0,647
162,850	0,124	0,649
162,900	0,124	0,648
162,950	0,124	0,649
163,000	0,122	0,647
163,050	0,122	0,648
163,100	0,121	0,647
163,150	0,120	0,648
163,200	0,119	0,647
163,250	0,117	0,648
163,300	0,116	0,646
163,350	0,114	0,647
163,400	0,112	0,645
163,450	0,112	0,646
163,500	0,110	0,645
163,550	0,110	0,646
163,600	0,109	0,645
163,650	0,108	0,645
163,700	0,108	0,644
163,750	0,108	0,646
163,800	0,107	0,644
163,850	0,107	0,645
163,900	0,106	0,644
163,950	0,106	0,645
164,000	0,105	0,644
164,050	0,104	0,644
164,100	0,104	0,644
164,150	0,103	0,644
164,200	0,103	0,643
164,250	0,102	0,644
164,300	0,102	0,643
164,350	0,101	0,644
164,400	0,101	0,642
164,450	0,100	0,643
164,500	0,100	0,642
164,550	0,099	0,643
164,600	0,099	0,642
164,650	0,099	0,643
164,700	0,098	0,642
164,750	0,098	0,643
164,800	0,097	0,641
164,850	0,096	0,642
164,900	0,095	0,641
164,950	0,095	0,642
165,000	0,094	0,641
165,050	0,093	0,641
165,100	0,093	0,640
165,150	0,093	0,641
165,200	0,092	0,640
165,250	0,092	0,641
165,300	0,092	0,640
165,350	0,091	0,641
165,400	0,090	0,639
165,450	0,090	0,640
165,500	0,089	0,639
165,550	0,089	0,640
165,600	0,088	0,639
165,650	0,088	0,639
165,700	0,087	0,638
165,750	0,087	0,640
165,800	0,086	0,638
165,850	0,085	0,639
165,900	0,085	0,638
165,950	0,085	0,639
166,000	0,084	0,637
166,050	0,083	0,638
166,100	0,083	0,637
166,150	0,083	0,638
166,200	0,082	0,637
166,250	0,082	0,638
166,300	0,081	0,636
166,350	0,081	0,637
166,400	0,081	0,636
166,450	0,081	0,637
166,500	0,081	0,636
166,550	0,081	0,637
166,600	0,081	0,636
166,650	0,081	0,637
166,700	0,081	0,636
166,750	0,081	0,637
166,800	0,081	0,636
166,850	0,081	0,637
166,900	0,080	0,636
166,950	0,080	0,637
167,000	0,079	0,635
167,050	0,079	0,636
167,100	0,078	0,635
167,150	0,077	0,635
167,200	0,076	0,634
167,250	0,075	0,634
167,300	0,074	0,633
167,350	0,073	0,634
167,400	0,072	0,632
167,450	0,072	0,633
167,500	0,071	0,632
167,550	0,071	0,633
167,600	0,071	0,632
167,650	0,071	0,633
167,700	0,071	0,632
167,750	0,071	0,633
167,800	0,070	0,632
167,850	0,070	0,632
167,900	0,069	0,631
167,950	0,069	0,632
168,000	0,068	0,630
168,050	0,067	0,631
168,100	0,067	0,630
168,150	0,066	0,631
168,200	0,065	0,629
168,250	0,064	0,630
168,300	0,063	0,628
168,350	0,062	0,629
168,400	0,061	0,627
168,450	0,060	0,628
168,500	0,060	0,626
168,550	0,060	0,627
168,600	0,059	0,626
168,650	0,059	0,627
168,700	0,058	0,625
168,750	0,057	0,626
168,800	0,057	0,624
168,850	0,055	0,625
168,900	0,054	0,623
168,950	0,053	0,623
169,000	0,052	0,621
169,050	0,052	0,622
169,100	0,051	0,620
169,150	0,051	0,621
169,200	0,050	0,620
169,250	0,050	0,621
169,300	0,050	0,620
169,350	0,050	0,621
169,400	0,050	0,619
169,450	0,049	0,620
169,500	0,050	0,619
169,550	0,050	0,620
169,600	0,049	0,619
169,650	0,050	0,620
169,700	0,050	0,619
169,750	0,049	0,620
169,800	0,047	0,618
169,850	0,046	0,618
169,900	0,045	0,616
169,950	0,044	0,617
170,000	0,043	0,614
170,050	0,041	0,614
170,100	0,041	0,612
170,150	0,039	0,612
170,200	0,038	0,610
170,250	0,037	0,610
170,300	0,037	0,608
170,350	0,036	0,608
170,400	0,035	0,606
170,450	0,034	0,607
170,500	0,033	0,605
170,550	0,033	0,605
170,600	0,033	0,603
170,650	0,032	0,604
170,700	0,032	0,602
170,750	0,032	0,603
170,800	0,031	0,601
170,850	0,031	0,602
170,900	0,031	0,601
170,950	0,031	0,601
171,000	0,030	0,600
171,050	0,029	0,600
171,100	0,027	0,598
171,150	0,026	0,598
171,200	0,025	0,595
171,250	0,025	0,595
171,300	0,023	0,593
171,350	0,022	0,592
171,400	0,021	0,589
171,450	0,020	0,589
171,500	0,018	0,586
171,550	0,017	0,585
171,600	0,017	0,582
171,650	0,016	0,582
171,700	0,016	0,580
171,750	0,015	0,580
171,800	0,014	0,577
171,850	0,014	0,577
171,900	0,014	0,576
171,950	0,013	0,576
172,000	0,012	0,573
172,050	0,011	0,573
172,100	0,010	0,570
172,150	0,009	0,570
172,200	0,009	0,567
172,250	0,008	0,566
172,300	0,007	0,564
172,350	0,007	0,563
172,400	0,007	0,561
172,450	0,006	0,561
172,500	0,006	0,559
172,550	0,005	0,559
172,600	0,005	0,557
172,650	0,005	0,557
172,700	0,004	0,555
172,750	0,004	0,555
172,800	0,004	0,554
172,850	0,004	0,554
172,900	0,004	0,552
172,950	0,003	0,553
173,000	0,003	0,551
173,050	0,003	0,552
173,100	0,003	0,550
173,150	0,003	0,550
173,200	0,003	0,549
173,250	0,003	0,550
173,300	0,003	0,548
173,350	0,002	0,549
173,400	0,002	0,547
173,450	0,002	0,548
173,500	0,002	0,546
173,550	0,002	0,547
173,600	0,002	0,546
173,650	0,002	0,547
173,700	0,002	0,545
173,750	0,002	0,546
173,800	0,002	0,545
173,850	0,002	0,546
173,900	0,001	0,544
173,950	0,002	0,545
174,000	0,002	0,544
174,050	0,001	0,545
174,100	0,001	0,544
174,150	0,002	0,545
174,200	0,001	0,544
174,250	0,001	0,544
174,300	0,001	0,543
174,350	0,001	0,544
174,400	0,001	0,543
174,450	9,728E-4	0,544
174,500	9,777E-4	0,543
174,550	0,001	0,544
174,600	0,001	0,543
174,650	0,001	0,544
174,700	9,532E-4	0,542
174,750	0,001	0,543
174,800	8,129E-4	0,542
174,850	8,910E-4	0,543
174,900	0,001	0,542
174,950	6,310E-4	0,543
175,000	-4,957E-4	0,541
175,050	-0,001	0,541
175,100	-0,002	0,537
175,150	-0,003	0,537
175,200	-0,003	0,534
175,250	-0,004	0,534
175,300	-0,004	0,531
175,350	-0,005	0,530
175,400	-0,006	0,528
175,450	-0,006	0,526
175,500	-0,007	0,523
175,550	-0,007	0,522
175,600	-0,008	0,519
175,650	-0,008	0,518
175,700	-0,009	0,515
175,750	-0,009	0,514
175,800	-0,010	0,511
175,850	-0,010	0,511
175,900	-0,011	0,507
175,950	-0,011	0,506
176,000	-0,012	0,503
176,050	-0,012	0,502
176,100	-0,012	0,498
176,150	-0,013	0,496
176,200	-0,013	0,493
176,250	-0,014	0,492
176,300	-0,014	0,489
176,350	-0,014	0,488
176,400	-0,014	0,485
176,450	-0,015	0,484
176,500	-0,015	0,480
176,550	-0,015	0,480
176,600	-0,015	0,477
176,650	-0,015	0,476
176,700	-0,016	0,473
176,750	-0,016	0,472
176,800	-0,016	0,469
176,850	-0,016	0,468
176,900	-0,017	0,464
176,950	-0,017	0,464
177,000	-0,017	0,460
177,050	-0,017	0,459
177,100	-0,017	0,457
177,150	-0,017	0,456
177,200	-0,018	0,452
177,250	-0,017	0,451
177,300	-0,018	0,448
177,350	-0,018	0,447
177,400	-0,018	0,444
177,450	-0,018	0,443
177,500	-0,018	0,440
177,550	-0,018	0,439
177,600	-0,019	0,435
177,650	-0,019	0,434
177,700	-0,019	0,431
177,750	-0,019	0,430
177,800	-0,019	0,427
177,850	-0,019	0,425
177,900	-0,019	0,422
177,950	-0,020	0,421
178,000	-0,019	0,418
178,050	-0,020	0,417
178,100	-0,020	0,413
178,150	-0,020	0,412
178,200	-0,020	0,409
178,250	-0,020	0,408
178,300	-0,020	0,405
178,350	-0,020	0,404
178,400	-0,021	0,400
178,450	-0,021	0,399
178,500	-0,021	0,396
178,550	-0,021	0,395
178,600	-0,021	0,391
178,650	-0,021	0,390
178,700	-0,021	0,387
178,750	-0,021	0,386
178,800	-0,021	0,383
178,850	-0,022	0,381
178,900	-0,022	0,378
178,950	-0,022	0,377
179,000	-0,022	0,374
179,050	-0,022	0,373
179,100	-0,022	0,370
179,150	-0,022	0,369
179,200	-0,022	0,365
179,250	-0,022	0,364
179,300	-0,023	0,361
179,350	-0,022	0,360
179,400	-0,023	0,356
179,450	-0,023	0,356
179,500	-0,023	0,352
179,550	-0,023	0,351
179,600	-0,023	0,348
179,650	-0,023	0,347
179,700	-0,023	0,344
179,750	-0,023	0,343
179,800	-0,023	0,340
179,850	-0,023	0,339
179,900	-0,023	0,336
179,950	-0,023	0,335
180,000	-0,024	0,332
180,050	-0,024	0,331
180,100	-0,024	0,328
180,150	-0,024	0,327
180,200	-0,024	0,324
180,250	-0,024	0,323
180,300	-0,024	0,320
180,350	-0,024	0,319
180,400	-0,024	0,317
180,450	-0,024	0,316
180,500	-0,024	0,313
180,550	-0,024	0,313
180,600	-0,025	0,309
180,650	-0,025	0,308
180,700	-0,025	0,305
180,750	-0,025	0,304
180,800	-0,025	0,301
180,850	-0,025	0,300
180,900	-0,025	0,297
180,950	-0,025	0,296
181,000	-0,025	0,292
181,050	-0,026	0,291
181,100	-0,026	0,288
181,150	-0,026	0,286
181,200	-0,026	0,283
181,250	-0,027	0,282
181,300	-0,027	0,278
181,350	-0,027	0,277
181,400	-0,027	0,273
181,450	-0,027	0,271
181,500	-0,028	0,267
181,550	-0,028	0,266
181,600	-0,028	0,262
181,650	-0,028	0,260
181,700	-0,029	0,256
181,750	-0,029	0,254
181,800	-0,029	0,250
181,850	-0,029	0,248
181,900	-0,029	0,244
181,950	-0,030	0,241
182,000	-0,030	0,237
182,050	-0,030	0,235
182,100	-0,031	0,231
182,150	-0,031	0,229
182,200	-0,031	0,225
182,250	-0,031	0,223
182,300	-0,031	0,219
182,350	-0,031	0,217
182,400	-0,032	0,213
182,450	-0,032	0,211
182,500	-0,032	0,207
182,550	-0,032	0,206
182,600	-0,032	0,202
182,650	-0,032	0,200
182,700	-0,033	0,196
182,750	-0,033	0,195
182,800	-0,033	0,191
182,850	-0,033	0,190
182,900	-0,033	0,186
182,950	-0,034	0,185
183,000	-0,034	0,181
183,050	-0,034	0,180
183,100	-0,034	0,176
183,150	-0,034	0,175
183,200	-0,035	0,171
183,250	-0,035	0,169
183,300	-0,036	0,165
183,350	-0,036	0,164
183,400	-0,036	0,159
183,450	-0,037	0,158
183,500	-0,037	0,154
183,550	-0,037	0,153
183,600	-0,037	0,149
183,650	-0,037	0,148
183,700	-0,038	0,144
183,750	-0,038	0,143
183,800	-0,038	0,139
183,850	-0,039	0,138
183,900	-0,039	0,134
183,950	-0,039	0,133
184,000	-0,039	0,130
184,050	-0,040	0,128
184,100	-0,040	0,125
184,150	-0,041	0,123
184,200	-0,041	0,120
184,250	-0,041	0,119
184,300	-0,041	0,115
184,350	-0,042	0,114
184,400	-0,042	0,111
184,450	-0,043	0,109
184,500	-0,043	0,106
184,550	-0,043	0,105
184,600	-0,044	0,101
184,650	-0,044	0,100
184,700	-0,044	0,097
184,750	-0,045	0,096
184,800	-0,045	0,093
184,850	-0,045	0,092
184,900	-0,046	0,089
184,950	-0,046	0,088
185,000	-0,046	0,085
185,050	-0,046	0,084
185,100	-0,047	0,082
185,150	-0,047	0,081
185,200	-0,047	0,078
185,250	-0,048	0,078
185,300	-0,048	0,075
185,350	-0,048	0,075
185,400	-0,048	0,072
185,450	-0,049	0,072
185,500	-0,049	0,069
185,550	-0,049	0,069
185,600	-0,049	0,066
185,650	-0,050	0,066
185,700	-0,050	0,064
185,750	-0,050	0,063
185,800	-0,050	0,061
185,850	-0,051	0,061
185,900	-0,051	0,059
185,950	-0,052	0,058
186,000	-0,052	0,056
186,050	-0,052	0,056
186,100	-0,052	0,054
186,150	-0,052	0,054
186,200	-0,053	0,052
186,250	-0,053	0,052
186,300	-0,053	0,050
186,350	-0,054	0,050
186,400	-0,054	0,048
186,450	-0,054	0,048
186,500	-0,054	0,046
186,550	-0,055	0,046
186,600	-0,055	0,044
186,650	-0,055	0,044
186,700	-0,055	0,042
186,750	-0,055	0,042
186,800	-0,056	0,040
186,850	-0,056	0,041
186,900	-0,056	0,039
186,950	-0,056	0,039
187,000	-0,056	0,037
187,050	-0,057	0,038
187,100	-0,057	0,036
187,150	-0,057	0,036
187,200	-0,057	0,035
187,250	-0,057	0,035
187,300	-0,057	0,034
187,350	-0,057	0,034
187,400	-0,058	0,032
187,450	-0,058	0,033
187,500	-0,058	0,032
187,550	-0,058	0,032
187,600	-0,058	0,031
187,650	-0,058	0,031
187,700	-0,058	0,030
187,750	-0,059	0,030
187,800	-0,058	0,029
187,850	-0,059	0,030
187,900	-0,059	0,028
187,950	-0,059	0,029
188,000	-0,059	0,028
188,050	-0,059	0,028
188,100	-0,059	0,027
188,150	-0,059	0,028
188,200	-0,059	0,027
188,250	-0,060	0,027
188,300	-0,060	0,025
188,350	-0,061	0,026
188,400	-0,061	0,024
188,450	-0,061	0,025
188,500	-0,061	0,023
188,550	-0,061	0,023
188,600	-0,062	0,021
188,650	-0,062	0,022
188,700	-0,062	0,020
188,750	-0,062	0,020
188,800	-0,062	0,018
188,850	-0,063	0,019
188,900	-0,063	0,017
188,950	-0,063	0,017
189,000	-0,063	0,016
189,050	-0,064	0,016
189,100	-0,064	0,014
189,150	-0,064	0,015
189,200	-0,065	0,013
189,250	-0,065	0,013
189,300	-0,066	0,011
189,350	-0,066	0,011
189,400	-0,066	0,009
189,450	-0,067	0,009
189,500	-0,067	0,007
189,550	-0,067	0,008
189,600	-0,067	0,006
189,650	-0,067	0,006
189,700	-0,068	0,005
189,750	-0,068	0,005
189,800	-0,068	0,004
189,850	-0,068	0,004
189,900	-0,069	0,003
189,950	-0,068	0,004
190,000	-0,069	0,002
190,050	-0,069	0,003
190,100	-0,069	0,001
190,150	-0,070	0,002
190,200	-0,070	-4,138E-5
190,250	-0,070	1,893E-4
190,300	-0,070	-0,001
190,350	-0,071	-0,001
190,400	-0,071	-0,002
190,450	-0,071	-0,002
190,500	-0,071	-0,003
190,550	-0,071	-0,003
190,600	-0,072	-0,004
190,650	-0,072	-0,004
190,700	-0,073	-0,006
190,750	-0,073	-0,006
190,800	-0,073	-0,007
190,850	-0,073	-0,007
190,900	-0,074	-0,008
190,950	-0,074	-0,008
191,000	-0,074	-0,010
191,050	-0,075	-0,010
191,100	-0,075	-0,011
191,150	-0,075	-0,010
191,200	-0,075	-0,012
191,250	-0,075	-0,011
191,300	-0,075	-0,012
191,350	-0,076	-0,012
191,400	-0,076	-0,013
191,450	-0,076	-0,013
191,500	-0,076	-0,013
191,550	-0,076	-0,013
191,600	-0,076	-0,014
191,650	-0,077	-0,014
191,700	-0,077	-0,015
191,750	-0,077	-0,015
191,800	-0,078	-0,016
191,850	-0,078	-0,016
191,900	-0,078	-0,018
191,950	-0,079	-0,017
192,000	-0,079	-0,019
192,050	-0,079	-0,019
192,100	-0,079	-0,020
192,150	-0,080	-0,019
192,200	-0,080	-0,021
192,250	-0,080	-0,020
192,300	-0,080	-0,021
192,350	-0,080	-0,021
192,400	-0,080	-0,022
192,450	-0,081	-0,022
192,500	-0,081	-0,022
192,550	-0,081	-0,022
192,600	-0,081	-0,023
192,650	-0,081	-0,023
192,700	-0,082	-0,023
192,750	-0,082	-0,023
192,800	-0,083	-0,025
192,850	-0,083	-0,025
192,900	-0,083	-0,026
192,950	-0,083	-0,026
193,000	-0,084	-0,027
193,050	-0,084	-0,027
193,100	-0,085	-0,029
193,150	-0,086	-0,029
193,200	-0,087	-0,031
193,250	-0,087	-0,031
193,300	-0,087	-0,033
193,350	-0,088	-0,033
193,400	-0,089	-0,034
193,450	-0,089	-0,034
193,500	-0,090	-0,037
193,550	-0,091	-0,037
193,600	-0,092	-0,039
193,650	-0,092	-0,039
193,700	-0,093	-0,040
193,750	-0,093	-0,040
193,800	-0,094	-0,042
193,850	-0,094	-0,042
193,900	-0,095	-0,043
193,950	-0,096	-0,044
194,000	-0,096	-0,045
194,050	-0,096	-0,045
194,100	-0,097	-0,046
194,150	-0,097	-0,046
194,200	-0,097	-0,047
194,250	-0,098	-0,047
194,300	-0,098	-0,048
194,350	-0,099	-0,048
194,400	-0,099	-0,049
194,450	-0,099	-0,049
194,500	-0,099	-0,049
194,550	-0,100	-0,049
194,600	-0,100	-0,050
194,650	-0,100	-0,050
194,700	-0,100	-0,051
194,750	-0,101	-0,051
194,800	-0,100	-0,051
194,850	-0,101	-0,051
194,900	-0,100	-0,051
194,950	-0,101	-0,051
195,000	-0,101	-0,052
195,050	-0,101	-0,051
195,100	-0,101	-0,052
195,150	-0,101	-0,052
195,200	-0,102	-0,052
195,250	-0,102	-0,053
195,300	-0,102	-0,053
195,350	-0,103	-0,053
195,400	-0,103	-0,054
195,450	-0,103	-0,054
195,500	-0,103	-0,054
195,550	-0,103	-0,054
195,600	-0,103	-0,054
195,650	-0,104	-0,055
195,700	-0,104	-0,055
195,750	-0,103	-0,055
195,800	-0,104	-0,055
195,850	-0,104	-0,055
195,900	-0,104	-0,055
195,950	-0,104	-0,055
196,000	-0,104	-0,055
196,050	-0,104	-0,055
196,100	-0,104	-0,056
196,150	-0,104	-0,055
196,200	-0,104	-0,056
196,250	-0,104	-0,055
196,300	-0,104	-0,056
196,350	-0,104	-0,056
196,400	-0,104	-0,056
196,450	-0,104	-0,056
196,500	-0,103	-0,055
196,550	-0,099	-0,055
196,600	-0,097	-0,055
196,650	-0,096	-0,054
196,700	-0,096	-0,054
196,750	-0,095	-0,054
196,800	-0,095	-0,054
196,850	-0,095	-0,054
196,900	-0,095	-0,054
196,950	-0,095	-0,054
197,000	-0,095	-0,054
197,050	-0,094	-0,054
197,100	-0,094	-0,054
197,150	-0,093	-0,053
197,200	-0,093	-0,053
197,250	-0,092	-0,053
197,300	-0,092	-0,053
197,350	-0,091	-0,053
197,400	-0,090	-0,052
197,450	-0,089	-0,052
197,500	-0,089	-0,052
197,550	-0,089	-0,052
197,600	-0,089	-0,052
197,650	-0,089	-0,052
197,700	-0,089	-0,052
197,750	-0,089	-0,052
197,800	-0,089	-0,052
197,850	-0,089	-0,052
197,900	-0,089	-0,052
197,950	-0,089	-0,052
198,000	-0,089	-0,052
198,050	-0,089	-0,052
198,100	-0,088	-0,052
198,150	-0,087	-0,052
198,200	-0,087	-0,051
198,250	-0,086	-0,051
198,300	-0,085	-0,051
198,350	-0,084	-0,051
198,400	-0,083	-0,050
198,450	-0,082	-0,050
198,500	-0,082	-0,050
198,550	-0,081	-0,050
198,600	-0,080	-0,049
198,650	-0,080	-0,049
198,700	-0,079	-0,049
198,750	-0,078	-0,049
198,800	-0,077	-0,048
198,850	-0,077	-0,048
198,900	-0,076	-0,047
198,950	-0,074	-0,048
199,000	-0,073	-0,046
199,050	-0,072	-0,047
199,100	-0,071	-0,046
199,150	-0,069	-0,046
199,200	-0,069	-0,045
199,250	-0,068	-0,045
199,300	-0,068	-0,044
199,350	-0,068	-0,045
199,400	-0,067	-0,044
199,450	-0,068	-0,045
199,500	-0,067	-0,044
199,550	-0,067	-0,044
199,600	-0,067	-0,044
199,650	-0,067	-0,044
199,700	-0,067	-0,044
199,750	-0,067	-0,045
199,800	-0,067	-0,044
199,850	-0,066	-0,044
199,900	-0,065	-0,043
199,950	-0,064	-0,043
200,000	-0,064	-0,042
200,050	-0,062	-0,042
200,100	-0,061	-0,041
200,150	-0,060	-0,041
200,200	-0,059	-0,040
200,250	-0,058	-0,040
200,300	-0,058	-0,039
200,350	-0,058	-0,040
200,400	-0,057	-0,039
200,450	-0,056	-0,039
200,500	-0,056	-0,038
200,550	-0,055	-0,038
200,600	-0,054	-0,037
200,650	-0,052	-0,037
200,700	-0,051	-0,035
200,750	-0,050	-0,036
200,800	-0,049	-0,034
200,850	-0,048	-0,034
200,900	-0,047	-0,032
200,950	-0,045	-0,032
201,000	-0,043	-0,030
201,050	-0,041	-0,029
201,100	-0,040	-0,027
201,150	-0,039	-0,027
201,200	-0,039	-0,025
201,250	-0,038	-0,025
201,300	-0,036	-0,024
201,350	-0,036	-0,024
201,400	-0,035	-0,022
201,450	-0,034	-0,022
201,500	-0,034	-0,021
201,550	-0,033	-0,021
201,600	-0,033	-0,019
201,650	-0,033	-0,020
201,700	-0,033	-0,019
201,750	-0,032	-0,020
201,800	-0,032	-0,018
201,850	-0,031	-0,018
201,900	-0,031	-0,017
201,950	-0,030	-0,017
202,000	-0,029	-0,016
202,050	-0,029	-0,016
202,100	-0,028	-0,014
202,150	-0,027	-0,014
202,200	-0,027	-0,013
202,250	-0,026	-0,013
202,300	-0,026	-0,011
202,350	-0,025	-0,012
202,400	-0,025	-0,010
202,450	-0,025	-0,010
202,500	-0,025	-0,009
202,550	-0,024	-0,010
202,600	-0,024	-0,008
202,650	-0,024	-0,009
202,700	-0,023	-0,007
202,750	-0,024	-0,009
202,800	-0,023	-0,007
202,850	-0,022	-0,007
202,900	-0,021	-0,005
202,950	-0,020	-0,005
203,000	-0,019	-0,002
203,050	-0,018	-0,002
203,100	-0,017	-1,415E-4
203,150	-0,017	-2,745E-4
203,200	-0,016	0,002
203,250	-0,015	0,003
203,300	-0,014	0,006
203,350	-0,013	0,006
203,400	-0,012	0,009
203,450	-0,011	0,009
203,500	-0,010	0,012
203,550	-0,009	0,012
203,600	-0,009	0,015
203,650	-0,008	0,015
203,700	-0,007	0,018
203,750	-0,007	0,018
203,800	-0,006	0,021
203,850	-0,006	0,020
203,900	-0,006	0,023
203,950	-0,005	0,023
204,000	-0,005	0,025
204,050	-0,004	0,025
204,100	-0,004	0,026
204,150	-0,004	0,026
204,200	-0,004	0,028
204,250	-0,004	0,028
204,300	-0,003	0,030
204,350	-0,003	0,029
204,400	-0,003	0,031
204,450	-0,002	0,031
204,500	-0,002	0,032
204,550	-0,002	0,032
204,600	-0,002	0,034
204,650	-0,002	0,033
204,700	-0,001	0,035
204,750	-7,435E-4	0,035
204,800	-9,303E-4	0,036
204,850	-4,750E-4	0,036
204,900	-3,590E-4	0,037
204,950	-3,639E-4	0,037
205,000	-2,467E-4	0,038
205,050	-2,284E-4	0,037
205,100	5,237E-5	0,039
205,150	-1,356E-4	0,038
205,200	2,318E-4	0,040
205,250	5,847E-5	0,039
205,300	3,772E-5	0,040
205,350	3,588E-4	0,039
205,400	3,148E-4	0,041
205,450	6,932E-4	0,040
205,500	3,502E-4	0,041
205,550	6,066E-4	0,040
205,600	4,064E-4	0,042
205,650	7,457E-4	0,041
205,700	6,200E-4	0,042
205,750	4,491E-4	0,041
205,800	0,001	0,043
205,850	0,001	0,042
205,900	8,239E-4	0,043
205,950	0,001	0,042
206,000	0,001	0,043
206,050	8,641E-4	0,042
206,100	0,001	0,043
206,150	0,001	0,042
206,200	8,043E-4	0,043
206,250	9,740E-4	0,043
206,300	9,752E-4	0,044
206,350	9,227E-4	0,042
206,400	0,001	0,044
206,450	0,002	0,044
206,500	0,002	0,045
206,550	0,003	0,045
206,600	0,003	0,047
206,650	0,003	0,047
206,700	0,003	0,049
206,750	0,004	0,049
206,800	0,004	0,051
206,850	0,005	0,051
206,900	0,005	0,053
206,950	0,005	0,053
207,000	0,006	0,056
207,050	0,006	0,056
207,100	0,006	0,058
207,150	0,007	0,058
207,200	0,007	0,061
207,250	0,008	0,062
207,300	0,009	0,065
207,350	0,010	0,067
207,400	0,010	0,069
207,450	0,011	0,070
207,500	0,011	0,073
207,550	0,011	0,074
207,600	0,012	0,077
207,650	0,012	0,078
207,700	0,012	0,080
207,750	0,012	0,081
207,800	0,012	0,084
207,850	0,013	0,084
207,900	0,013	0,087
207,950	0,013	0,087
208,000	0,013	0,090
208,050	0,014	0,090
208,100	0,014	0,092
208,150	0,014	0,093
208,200	0,015	0,096
208,250	0,015	0,097
208,300	0,015	0,099
208,350	0,015	0,100
208,400	0,015	0,103
208,450	0,016	0,103
208,500	0,015	0,106
208,550	0,016	0,106
208,600	0,016	0,109
208,650	0,016	0,109
208,700	0,016	0,112
208,750	0,017	0,112
208,800	0,016	0,114
208,850	0,017	0,115
208,900	0,017	0,118
208,950	0,017	0,118
209,000	0,017	0,121
209,050	0,017	0,122
209,100	0,017	0,124
209,150	0,017	0,125
209,200	0,018	0,128
209,250	0,018	0,130
209,300	0,018	0,132
209,350	0,019	0,134
209,400	0,019	0,137
209,450	0,019	0,137
209,500	0,019	0,140
209,550	0,019	0,141
209,600	0,019	0,144
209,650	0,020	0,146
209,700	0,020	0,149
209,750	0,020	0,151
209,800	0,020	0,154
209,850	0,020	0,156
209,900	0,020	0,158
209,950	0,020	0,160
210,000	0,020	0,163
210,050	0,021	0,165
210,100	0,021	0,168
210,150	0,021	0,169
210,200	0,021	0,172
210,250	0,021	0,173
210,300	0,021	0,176
210,350	0,021	0,177
210,400	0,021	0,181
210,450	0,021	0,182
210,500	0,021	0,185
210,550	0,022	0,186
210,600	0,022	0,189
210,650	0,022	0,190
210,700	0,022	0,193
210,750	0,022	0,195
210,800	0,022	0,198
210,850	0,022	0,200
210,900	0,022	0,203
210,950	0,023	0,205
211,000	0,023	0,207
211,050	0,023	0,210
211,100	0,023	0,213
211,150	0,024	0,216
211,200	0,024	0,219
211,250	0,024	0,221
211,300	0,024	0,225
211,350	0,024	0,227
211,400	0,024	0,230
211,450	0,025	0,232
211,500	0,025	0,235
211,550	0,025	0,237
211,600	0,025	0,241
211,650	0,025	0,243
211,700	0,025	0,246
211,750	0,025	0,248
211,800	0,025	0,251
211,850	0,026	0,253
211,900	0,026	0,256
211,950	0,026	0,258
212,000	0,026	0,261
212,050	0,026	0,264
212,100	0,027	0,267
212,150	0,027	0,270
212,200	0,027	0,273
212,250	0,027	0,276
212,300	0,028	0,280
212,350	0,028	0,282
212,400	0,028	0,285
212,450	0,028	0,288
212,500	0,028	0,292
212,550	0,029	0,295
212,600	0,029	0,298
212,650	0,029	0,302
212,700	0,029	0,305
212,750	0,029	0,307
212,800	0,029	0,311
212,850	0,030	0,314
212,900	0,030	0,317
212,950	0,030	0,320
213,000	0,031	0,324
213,050	0,031	0,326
213,100	0,031	0,330
213,150	0,031	0,333
213,200	0,031	0,336
213,250	0,032	0,339
213,300	0,032	0,343
213,350	0,032	0,346
213,400	0,032	0,349
213,450	0,033	0,353
213,500	0,033	0,356
213,550	0,033	0,359
213,600	0,033	0,362
213,650	0,034	0,366
213,700	0,034	0,369
213,750	0,034	0,372
213,800	0,034	0,376
213,850	0,035	0,379
213,900	0,035	0,381
213,950	0,035	0,385
214,000	0,035	0,388
214,050	0,035	0,391
214,100	0,036	0,394
214,150	0,036	0,397
214,200	0,036	0,400
214,250	0,036	0,403
214,300	0,037	0,406
214,350	0,037	0,409
214,400	0,037	0,412
214,450	0,038	0,415
214,500	0,038	0,417
214,550	0,038	0,420
214,600	0,038	0,423
214,650	0,038	0,425
214,700	0,039	0,428
214,750	0,039	0,431
214,800	0,039	0,433
214,850	0,040	0,435
214,900	0,040	0,438
214,950	0,040	0,440
215,000	0,040	0,442
215,050	0,040	0,445
215,100	0,041	0,446
215,150	0,041	0,449
215,200	0,041	0,451
215,250	0,041	0,453
215,300	0,042	0,454
215,350	0,042	0,457
215,400	0,042	0,458
215,450	0,042	0,460
215,500	0,042	0,461
215,550	0,043	0,463
215,600	0,043	0,465
215,650	0,043	0,466
215,700	0,043	0,468
215,750	0,044	0,470
215,800	0,044	0,470
215,850	0,044	0,472
215,900	0,044	0,473
215,950	0,044	0,475
216,000	0,045	0,476
216,050	0,045	0,478
216,100	0,045	0,478
216,150	0,045	0,480
216,200	0,045	0,480
216,250	0,046	0,482
216,300	0,045	0,482
216,350	0,046	0,484
216,400	0,046	0,485
216,450	0,046	0,486
216,500	0,046	0,486
216,550	0,047	0,488
216,600	0,046	0,488
216,650	0,047	0,490
216,700	0,047	0,490
216,750	0,047	0,491
216,800	0,047	0,491
216,850	0,047	0,493
216,900	0,047	0,492
216,950	0,048	0,494
217,000	0,048	0,494
217,050	0,047	0,495
217,100	0,048	0,495
217,150	0,047	0,496
217,200	0,048	0,496
217,250	0,048	0,497
217,300	0,048	0,497
217,350	0,048	0,498
217,400	0,048	0,498
217,450	0,048	0,499
217,500	0,048	0,499
217,550	0,049	0,500
217,600	0,049	0,499
217,650	0,049	0,501
217,700	0,049	0,500
217,750	0,049	0,502
217,800	0,049	0,501
217,850	0,049	0,502
217,900	0,049	0,502
217,950	0,049	0,503
218,000	0,049	0,502
218,050	0,049	0,503
218,100	0,049	0,503
218,150	0,049	0,504
218,200	0,049	0,503
218,250	0,049	0,504
218,300	0,049	0,503
218,350	0,049	0,505
218,400	0,049	0,504
218,450	0,050	0,505
218,500	0,050	0,505
218,550	0,050	0,505
218,600	0,050	0,505
218,650	0,050	0,506
218,700	0,050	0,505
218,750	0,050	0,506
218,800	0,050	0,505
218,850	0,050	0,507
218,900	0,049	0,505
218,950	0,049	0,506
219,000	0,050	0,506
219,050	0,050	0,507
219,100	0,050	0,506
219,150	0,049	0,507
219,200	0,047	0,506
219,250	0,047	0,506
219,300	0,046	0,505
219,350	0,046	0,506
219,400	0,046	0,505
219,450	0,046	0,506
219,500	0,046	0,505
219,550	0,046	0,506
219,600	0,046	0,505
219,650	0,046	0,506
219,700	0,046	0,505
219,750	0,046	0,506
219,800	0,045	0,505
219,850	0,044	0,505
219,900	0,043	0,504
219,950	0,042	0,504
220,000	0,042	0,503
220,050	0,041	0,504
220,100	0,041	0,503
220,150	0,040	0,503
220,200	0,040	0,502
220,250	0,038	0,502
220,300	0,038	0,501
220,350	0,037	0,502
220,400	0,037	0,501
220,450	0,036	0,501
220,500	0,036	0,500
220,550	0,036	0,501
220,600	0,036	0,500
220,650	0,036	0,501
220,700	0,036	0,500
220,750	0,036	0,501
220,800	0,036	0,500
220,850	0,036	0,501
220,900	0,035	0,499
220,950	0,036	0,501
221,000	0,035	0,499
221,050	0,033	0,499
221,100	0,031	0,498
221,150	0,031	0,498
221,200	0,030	0,496
221,250	0,029	0,496
221,300	0,027	0,494
221,350	0,026	0,495
221,400	0,026	0,493
221,450	0,026	0,494
221,500	0,025	0,492
221,550	0,025	0,493
221,600	0,024	0,491
221,650	0,024	0,492
221,700	0,024	0,491
221,750	0,022	0,491
221,800	0,020	0,488
221,850	0,018	0,488
221,900	0,016	0,485
221,950	0,016	0,484
222,000	0,015	0,482
222,050	0,014	0,482
222,100	0,014	0,480
222,150	0,014	0,481
222,200	0,013	0,479
222,250	0,013	0,479
222,300	0,013	0,478
222,350	0,012	0,478
222,400	0,010	0,476
222,450	0,009	0,475
222,500	0,008	0,472
222,550	0,007	0,472
222,600	0,006	0,469
222,650	0,006	0,469
222,700	0,005	0,467
222,750	0,005	0,467
222,800	0,005	0,465
222,850	0,004	0,465
222,900	0,004	0,463
222,950	0,003	0,463
223,000	0,003	0,462
223,050	0,003	0,462
223,100	0,003	0,461
223,150	0,003	0,461
223,200	0,003	0,459
223,250	0,003	0,460
223,300	0,002	0,458
223,350	0,002	0,459
223,400	0,002	0,458
223,450	0,002	0,459
223,500	0,002	0,457
223,550	0,002	0,458
223,600	0,002	0,456
223,650	0,002	0,457
223,700	0,002	0,456
223,750	0,002	0,457
223,800	0,002	0,456
223,850	0,002	0,456
223,900	0,002	0,455
223,950	0,001	0,456
224,000	0,002	0,455
224,050	0,001	0,456
224,100	0,001	0,454
224,150	0,002	0,456
224,200	9,606E-4	0,454
224,250	0,001	0,455
224,300	9,020E-4	0,454
224,350	0,001	0,455
224,400	0,001	0,454
224,450	9,508E-4	0,454
224,500	9,801E-4	0,453
224,550	0,001	0,454
224,600	0,001	0,453
224,650	7,872E-4	0,454
224,700	3,942E-4	0,453
224,750	-3,553E-4	0,453
224,800	-0,001	0,451
224,850	-0,002	0,451
224,900	-0,002	0,448
224,950	-0,002	0,449
225,000	-0,003	0,446
225,050	-0,003	0,446
225,100	-0,003	0,444
225,150	-0,003	0,445
225,200	-0,004	0,442
225,250	-0,004	0,442
225,300	-0,004	0,441
225,350	-0,004	0,441
225,400	-0,005	0,439
225,450	-0,005	0,439
225,500	-0,005	0,437
225,550	-0,006	0,437
225,600	-0,006	0,435
225,650	-0,006	0,435
225,700	-0,007	0,432
225,750	-0,006	0,433
225,800	-0,007	0,431
225,850	-0,007	0,431
225,900	-0,007	0,428
225,950	-0,008	0,429
226,000	-0,008	0,426
226,050	-0,008	0,426
226,100	-0,008	0,424
226,150	-0,009	0,423
226,200	-0,009	0,421
226,250	-0,009	0,421
226,300	-0,010	0,418
226,350	-0,010	0,417
226,400	-0,011	0,414
226,450	-0,011	0,414
226,500	-0,011	0,411
226,550	-0,011	0,411
226,600	-0,012	0,408
226,650	-0,012	0,408
226,700	-0,012	0,406
226,750	-0,012	0,405
226,800	-0,013	0,402
226,850	-0,013	0,402
226,900	-0,013	0,399
226,950	-0,013	0,399
227,000	-0,014	0,395
227,050	-0,014	0,395
227,100	-0,014	0,392
227,150	-0,014	0,391
227,200	-0,014	0,389
227,250	-0,015	0,388
227,300	-0,015	0,385
227,350	-0,015	0,383
227,400	-0,015	0,380
227,450	-0,015	0,379
227,500	-0,016	0,376
227,550	-0,015	0,375
227,600	-0,016	0,372
227,650	-0,016	0,371
227,700	-0,016	0,367
227,750	-0,017	0,366
227,800	-0,017	0,362
227,850	-0,017	0,361
227,900	-0,017	0,357
227,950	-0,017	0,356
228,000	-0,017	0,353
228,050	-0,017	0,352
228,100	-0,017	0,348
228,150	-0,018	0,347
228,200	-0,018	0,344
228,250	-0,018	0,343
228,300	-0,018	0,339
228,350	-0,018	0,338
228,400	-0,018	0,335
228,450	-0,018	0,334
228,500	-0,018	0,331
228,550	-0,018	0,330
228,600	-0,019	0,326
228,650	-0,018	0,326
228,700	-0,019	0,322
228,750	-0,019	0,321
228,800	-0,019	0,318
228,850	-0,019	0,317
228,900	-0,019	0,314
228,950	-0,019	0,313
229,000	-0,019	0,310
229,050	-0,020	0,309
229,100	-0,020	0,305
229,150	-0,020	0,304
229,200	-0,020	0,300
229,250	-0,020	0,299
229,300	-0,021	0,295
229,350	-0,021	0,294
229,400	-0,021	0,290
229,450	-0,021	0,289
229,500	-0,021	0,285
229,550	-0,021	0,283
229,600	-0,021	0,280
229,650	-0,021	0,278
229,700	-0,021	0,275
229,750	-0,022	0,273
229,800	-0,022	0,270
229,850	-0,022	0,268
229,900	-0,022	0,265
229,950	-0,022	0,264
230,000	-0,022	0,260
230,050	-0,022	0,258
230,100	-0,022	0,255
230,150	-0,023	0,253
230,200	-0,023	0,250
230,250	-0,023	0,247
230,300	-0,023	0,244
230,350	-0,024	0,241
230,400	-0,024	0,237
230,450	-0,024	0,235
230,500	-0,024	0,231
230,550	-0,024	0,229
230,600	-0,025	0,225
230,650	-0,025	0,223
230,700	-0,025	0,219
230,750	-0,025	0,217
230,800	-0,025	0,214
230,850	-0,025	0,211
230,900	-0,025	0,208
230,950	-0,026	0,206
231,000	-0,026	0,202
231,050	-0,027	0,199
231,100	-0,027	0,194
231,150	-0,028	0,191
231,200	-0,028	0,187
231,250	-0,028	0,184
231,300	-0,028	0,180
231,350	-0,029	0,177
231,400	-0,029	0,173
231,450	-0,029	0,171
231,500	-0,029	0,167
231,550	-0,029	0,164
231,600	-0,030	0,160
231,650	-0,030	0,158
231,700	-0,030	0,153
231,750	-0,030	0,152
231,800	-0,031	0,148
231,850	-0,031	0,146
231,900	-0,031	0,142
231,950	-0,031	0,140
232,000	-0,031	0,137
232,050	-0,031	0,135
232,100	-0,032	0,131
232,150	-0,032	0,129
232,200	-0,032	0,125
232,250	-0,033	0,123
232,300	-0,033	0,120
232,350	-0,033	0,118
232,400	-0,034	0,114
232,450	-0,034	0,113
232,500	-0,034	0,109
232,550	-0,035	0,107
232,600	-0,035	0,104
232,650	-0,036	0,102
232,700	-0,036	0,099
232,750	-0,036	0,097
232,800	-0,037	0,094
232,850	-0,037	0,092
232,900	-0,037	0,089
232,950	-0,038	0,088
233,000	-0,038	0,085
233,050	-0,039	0,083
233,100	-0,039	0,080
233,150	-0,040	0,078
233,200	-0,040	0,076
233,250	-0,041	0,074
233,300	-0,041	0,072
233,350	-0,042	0,070
233,400	-0,042	0,068
233,450	-0,042	0,067
233,500	-0,043	0,064
233,550	-0,043	0,063
233,600	-0,044	0,061
233,650	-0,044	0,060
233,700	-0,044	0,058
233,750	-0,045	0,057
233,800	-0,045	0,055
233,850	-0,046	0,055
233,900	-0,046	0,053
233,950	-0,046	0,052
234,000	-0,046	0,051
234,050	-0,047	0,050
234,100	-0,047	0,049
234,150	-0,047	0,048
234,200	-0,048	0,046
234,250	-0,048	0,046
234,300	-0,048	0,044
234,350	-0,048	0,045
234,400	-0,049	0,043
234,450	-0,049	0,043
234,500	-0,049	0,042
234,550	-0,049	0,041
234,600	-0,050	0,040
234,650	-0,050	0,040
234,700	-0,050	0,039
234,750	-0,050	0,039
234,800	-0,050	0,038
234,850	-0,050	0,038
234,900	-0,049	0,038
234,950	-0,049	0,038
235,000	-0,048	0,038
235,050	-0,048	0,039
235,100	-0,047	0,039
235,150	-0,047	0,039
235,200	-0,046	0,039
235,250	-0,046	0,040
235,300	-0,046	0,039
235,350	-0,045	0,040
235,400	-0,045	0,039
235,450	-0,044	0,040
235,500	-0,044	0,040
235,550	-0,043	0,040
235,600	-0,043	0,040
235,650	-0,042	0,041
235,700	-0,042	0,041
235,750	-0,041	0,041
235,800	-0,041	0,041
235,850	-0,041	0,041
235,900	-0,040	0,041
235,950	-0,040	0,042
236,000	-0,039	0,042
236,050	-0,039	0,042
236,100	-0,039	0,042
236,150	-0,039	0,042
236,200	-0,039	0,042
236,250	-0,039	0,043
236,300	-0,039	0,042
236,350	-0,039	0,043
236,400	-0,038	0,043
236,450	-0,038	0,043
236,500	-0,037	0,043
236,550	-0,037	0,044
236,600	-0,037	0,043
236,650	-0,036	0,044
236,700	-0,036	0,044
236,750	-0,035	0,044
236,800	-0,035	0,044
236,850	-0,034	0,045
236,900	-0,033	0,045
236,950	-0,032	0,046
237,000	-0,031	0,047
237,050	-0,030	0,048
237,100	-0,029	0,048
237,150	-0,028	0,049
237,200	-0,028	0,049
237,250	-0,027	0,050
237,300	-0,027	0,050
237,350	-0,027	0,050
237,400	-0,027	0,050
237,450	-0,026	0,051
237,500	-0,026	0,051
237,550	-0,025	0,051
237,600	-0,025	0,052
237,650	-0,024	0,052
237,700	-0,024	0,052
237,750	-0,023	0,053
237,800	-0,023	0,053
237,850	-0,023	0,053
237,900	-0,023	0,054
237,950	-0,023	0,054
238,000	-0,022	0,054
238,050	-0,022	0,054
238,100	-0,022	0,054
238,150	-0,021	0,055
238,200	-0,021	0,055
238,250	-0,021	0,055
238,300	-0,020	0,056
238,350	-0,020	0,056
238,400	-0,019	0,057
238,450	-0,019	0,057
238,500	-0,019	0,057
238,550	-0,018	0,058
238,600	-0,018	0,058
238,650	-0,017	0,059
238,700	-0,017	0,059
238,750	-0,017	0,059
238,800	-0,017	0,060
238,850	-0,017	0,060
238,900	-0,016	0,060
238,950	-0,016	0,060
239,000	-0,016	0,061
239,050	-0,015	0,061
239,100	-0,015	0,062
239,150	-0,015	0,061
239,200	-0,015	0,062
239,250	-0,014	0,062
239,300	-0,013	0,063
239,350	-0,012	0,064
239,400	-0,011	0,065
239,450	-0,011	0,066
239,500	-0,011	0,067
239,550	-0,010	0,067
239,600	-0,010	0,068
239,650	-0,010	0,068
239,700	-0,010	0,069
239,750	-0,009	0,069
239,800	-0,009	0,070
239,850	-0,008	0,070
239,900	-0,008	0,071
239,950	-0,008	0,071
240,000	-0,007	0,072
240,050	-0,007	0,072
240,100	-0,007	0,073
240,150	-0,006	0,073
240,200	-0,006	0,075
240,250	-0,006	0,074
240,300	-0,006	0,075
240,350	-0,005	0,076
240,400	-0,005	0,076
240,450	-0,005	0,076
240,500	-0,004	0,078
240,550	-0,004	0,078
240,600	-0,004	0,079
240,650	-0,003	0,079
240,700	-0,003	0,080
240,750	-0,003	0,080
240,800	-0,002	0,082
240,850	-0,003	0,081
240,900	-0,002	0,083
240,950	-0,002	0,082
241,000	-0,002	0,084
241,050	-0,002	0,083
241,100	-0,001	0,085
241,150	-0,001	0,084
241,200	-8,717E-4	0,086
241,250	-8,229E-4	0,085
241,300	-4,945E-4	0,086
241,350	-5,262E-4	0,086
241,400	-3,138E-4	0,087
241,450	-1,906E-4	0,087
241,500	-6,238E-5	0,088
241,550	8,655E-5	0,087
241,600	1,622E-4	0,088
241,650	3,307E-4	0,088
241,700	-8,923E-5	0,089
241,750	1,927E-4	0,088
241,800	4,235E-4	0,090
241,850	2,941E-4	0,089
241,900	4,723E-4	0,090
241,950	4,344E-4	0,089
242,000	2,281E-4	0,090
242,050	5,138E-4	0,089
242,100	5,797E-4	0,090
242,150	3,966E-4	0,089
242,200	4,735E-4	0,090
242,250	5,223E-4	0,090
242,300	2,806E-4	0,090
242,350	6,615E-4	0,090
242,400	5,394E-4	0,091
242,450	7,018E-4	0,090
242,500	6,676E-4	0,091
242,550	9,069E-4	0,090
242,600	7,311E-4	0,091
242,650	8,922E-4	0,090
242,700	8,239E-4	0,091
242,750	7,714E-4	0,090
242,800	7,128E-4	0,091
242,850	6,871E-4	0,090
242,900	0,001	0,092
242,950	9,435E-4	0,091
243,000	9,044E-4	0,092
243,050	7,787E-4	0,090
243,100	0,001	0,092
243,150	0,002	0,091
243,200	0,002	0,093
243,250	0,003	0,093
243,300	0,003	0,095
243,350	0,004	0,095
243,400	0,004	0,098
243,450	0,005	0,098
243,500	0,005	0,100
243,550	0,005	0,100
243,600	0,006	0,102
243,650	0,006	0,102
243,700	0,006	0,105
243,750	0,006	0,104
243,800	0,006	0,106
243,850	0,006	0,106
243,900	0,007	0,108
243,950	0,007	0,108
244,000	0,007	0,110
244,050	0,008	0,109
244,100	0,008	0,112
244,150	0,008	0,112
244,200	0,009	0,114
244,250	0,009	0,114
244,300	0,009	0,116
244,350	0,010	0,116
244,400	0,010	0,118
244,450	0,010	0,118
244,500	0,010	0,121
244,550	0,011	0,121
244,600	0,011	0,124
244,650	0,011	0,124
244,700	0,011	0,126
244,750	0,012	0,126
244,800	0,011	0,128
244,850	0,012	0,129
244,900	0,012	0,131
244,950	0,012	0,131
245,000	0,012	0,133
245,050	0,012	0,133
245,100	0,013	0,135
245,150	0,013	0,135
245,200	0,013	0,137
245,250	0,013	0,137
245,300	0,013	0,140
245,350	0,014	0,140
245,400	0,014	0,142
245,450	0,014	0,142
245,500	0,014	0,144
245,550	0,014	0,144
245,600	0,014	0,146
245,650	0,015	0,147
245,700	0,015	0,149
245,750	0,015	0,149
245,800	0,015	0,152
245,850	0,015	0,152
245,900	0,015	0,154
245,950	0,015	0,154
246,000	0,016	0,157
246,050	0,015	0,157
246,100	0,016	0,159
246,150	0,016	0,159
246,200	0,016	0,162
246,250	0,016	0,162
246,300	0,016	0,164
246,350	0,016	0,164
246,400	0,017	0,167
246,450	0,016	0,167
246,500	0,017	0,170
246,550	0,017	0,170
246,600	0,017	0,173
246,650	0,017	0,173
246,700	0,017	0,176
246,750	0,017	0,176
246,800	0,017	0,179
246,850	0,017	0,179
246,900	0,017	0,181
246,950	0,017	0,182
247,000	0,017	0,184
247,050	0,017	0,184
247,100	0,018	0,187
247,150	0,018	0,187
247,200	0,018	0,189
247,250	0,018	0,190
247,300	0,018	0,192
247,350	0,018	0,192
247,400	0,018	0,194
247,450	0,018	0,194
247,500	0,018	0,197
247,550	0,018	0,197
247,600	0,018	0,199
247,650	0,019	0,200
247,700	0,019	0,203
247,750	0,019	0,203
247,800	0,019	0,206
247,850	0,019	0,206
247,900	0,019	0,209
247,950	0,019	0,209
248,000	0,019	0,212
248,050	0,019	0,213
248,100	0,019	0,215
248,150	0,020	0,216
248,200	0,020	0,219
248,250	0,020	0,220
248,300	0,020	0,223
248,350	0,020	0,224
248,400	0,020	0,226
248,450	0,020	0,228
248,500	0,020	0,230
248,550	0,021	0,231
248,600	0,021	0,233
248,650	0,021	0,234
248,700	0,021	0,237
248,750	0,021	0,238
248,800	0,021	0,240
248,850	0,021	0,241
248,900	0,021	0,244
248,950	0,021	0,244
249,000	0,021	0,247
249,050	0,021	0,248
249,100	0,022	0,251
249,150	0,022	0,252
249,200	0,022	0,255
249,250	0,022	0,256
249,300	0,022	0,259
249,350	0,023	0,261
249,400	0,022	0,263
249,450	0,022	0,264
249,500	0,023	0,268
249,550	0,023	0,269
249,600	0,023	0,272
249,650	0,023	0,274
249,700	0,023	0,276
249,750	0,023	0,278
249,800	0,023	0,280
249,850	0,023	0,282
249,900	0,023	0,284
249,950	0,024	0,286
250,000	0,024	0,288
250,050	0,024	0,290
250,100	0,024	0,292
250,150	0,024	0,294
250,200	0,024	0,296
250,250	0,024	0,297
250,300	0,024	0,300
250,350	0,024	0,301
250,400	0,024	0,304
250,450	0,024	0,305
250,500	0,025	0,308
250,550	0,025	0,309
250,600	0,025	0,311
250,650	0,025	0,312
250,700	0,025	0,315
250,750	0,025	0,316
250,800	0,025	0,318
250,850	0,025	0,319
250,900	0,025	0,322
250,950	0,025	0,323
251,000	0,026	0,325
251,050	0,026	0,326
251,100	0,026	0,329
251,150	0,026	0,331
251,200	0,026	0,333
251,250	0,026	0,334
251,300	0,026	0,337
251,350	0,026	0,338
251,400	0,027	0,340
251,450	0,027	0,342
251,500	0,027	0,344
251,550	0,027	0,345
251,600	0,027	0,347
251,650	0,027	0,349
251,700	0,027	0,350
251,750	0,027	0,352
251,800	0,027	0,354
251,850	0,028	0,356
251,900	0,028	0,358
251,950	0,028	0,359
252,000	0,028	0,361
252,050	0,028	0,363
252,100	0,028	0,365
252,150	0,028	0,366
252,200	0,029	0,368
252,250	0,029	0,370
252,300	0,029	0,372
252,350	0,029	0,374
252,400	0,029	0,375
252,450	0,029	0,377
252,500	0,030	0,379
252,550	0,030	0,381
252,600	0,029	0,382
252,650	0,030	0,384
252,700	0,030	0,386
252,750	0,030	0,387
252,800	0,030	0,389
252,850	0,030	0,390
252,900	0,031	0,392
252,950	0,031	0,394
253,000	0,031	0,395
253,050	0,031	0,396
253,100	0,031	0,398
253,150	0,031	0,400
253,200	0,031	0,400
253,250	0,031	0,402
253,300	0,031	0,402
253,350	0,031	0,404
253,400	0,031	0,404
253,450	0,031	0,405
253,500	0,031	0,406
253,550	0,031	0,407
253,600	0,031	0,407
253,650	0,030	0,407
253,700	0,030	0,407
253,750	0,030	0,408
253,800	0,030	0,408
253,850	0,030	0,408
253,900	0,029	0,407
253,950	0,029	0,408
254,000	0,029	0,407
254,050	0,028	0,407
254,100	0,028	0,407
254,150	0,028	0,407
254,200	0,027	0,407
254,250	0,027	0,407
254,300	0,027	0,406
254,350	0,027	0,407
254,400	0,026	0,406
254,450	0,026	0,406
254,500	0,025	0,405
254,550	0,025	0,406
254,600	0,025	0,405
254,650	0,025	0,406
254,700	0,024	0,405
254,750	0,024	0,405
254,800	0,023	0,404
254,850	0,023	0,404
254,900	0,023	0,404
254,950	0,022	0,404
255,000	0,022	0,403
255,050	0,022	0,404
255,100	0,022	0,403
255,150	0,021	0,403
255,200	0,021	0,402
255,250	0,021	0,402
255,300	0,020	0,402
255,350	0,020	0,402
255,400	0,019	0,401
255,450	0,019	0,401
255,500	0,019	0,401
255,550	0,018	0,400
255,600	0,018	0,400
255,650	0,018	0,400
255,700	0,018	0,400
255,750	0,018	0,400
255,800	0,017	0,399
255,850	0,017	0,399
255,900	0,016	0,398
255,950	0,016	0,398
256,000	0,016	0,397
256,050	0,016	0,398
256,100	0,015	0,397
256,150	0,015	0,397
256,200	0,015	0,396
256,250	0,015	0,397
256,300	0,015	0,396
256,350	0,015	0,396
256,400	0,015	0,395
256,450	0,014	0,396
256,500	0,015	0,395
256,550	0,014	0,396
256,600	0,013	0,395
256,650	0,013	0,395
256,700	0,012	0,394
256,750	0,012	0,393
256,800	0,011	0,392
256,850	0,011	0,392
256,900	0,010	0,391
256,950	0,009	0,390
257,000	0,009	0,389
257,050	0,008	0,389
257,100	0,007	0,387
257,150	0,007	0,387
257,200	0,007	0,386
257,250	0,006	0,386
257,300	0,006	0,384
257,350	0,005	0,384
257,400	0,005	0,382
257,450	0,005	0,382
257,500	0,004	0,381
257,550	0,004	0,381
257,600	0,004	0,379
257,650	0,003	0,379
257,700	0,003	0,378
257,750	0,003	0,378
257,800	0,003	0,377
257,850	0,003	0,377
257,900	0,002	0,376
257,950	0,002	0,376
258,000	0,002	0,375
258,050	0,002	0,376
258,100	0,002	0,374
258,150	0,002	0,375
258,200	0,002	0,373
258,250	0,002	0,374
258,300	0,002	0,373
258,350	0,002	0,374
258,400	0,002	0,373
258,450	0,001	0,373
258,500	0,001	0,372
258,550	9,447E-4	0,372
258,600	0,001	0,372
258,650	0,001	0,372
258,700	0,001	0,372
258,750	0,001	0,372
258,800	0,001	0,371
258,850	0,001	0,372
258,900	8,959E-4	0,371
258,950	9,398E-4	0,372
259,000	0,001	0,371
259,050	9,081E-4	0,372
259,100	0,001	0,371
259,150	0,001	0,372
259,200	8,776E-4	0,370
259,250	6,603E-4	0,371
259,300	9,374E-4	0,370
259,350	6,273E-4	0,371
259,400	9,044E-4	0,370
259,450	8,824E-4	0,371
259,500	7,201E-4	0,370
259,550	8,727E-4	0,371
259,600	9,484E-4	0,370
259,650	8,434E-4	0,371
259,700	0,001	0,370
259,750	9,703E-4	0,371
259,800	5,663E-4	0,370
259,850	7,653E-4	0,371
259,900	7,579E-4	0,370
259,950	7,140E-4	0,371
260,000	6,627E-4	0,370
260,050	-8,435E-5	0,370
260,100	-1,478E-4	0,369
260,150	-8,339E-4	0,369
260,200	-0,001	0,367
260,250	-0,002	0,367
260,300	-0,002	0,366
260,350	-0,002	0,366
260,400	-0,002	0,364
260,450	-0,002	0,365
260,500	-0,002	0,364
260,550	-0,002	0,364
260,600	-0,002	0,363
260,650	-0,003	0,363
260,700	-0,003	0,361
260,750	-0,003	0,361
260,800	-0,004	0,360
260,850	-0,004	0,360
260,900	-0,004	0,358
260,950	-0,004	0,358
261,000	-0,004	0,357
261,050	-0,005	0,357
261,100	-0,004	0,356
261,150	-0,005	0,356
261,200	-0,005	0,354
261,250	-0,005	0,355
261,300	-0,006	0,353
261,350	-0,006	0,353
261,400	-0,006	0,351
261,450	-0,006	0,351
261,500	-0,007	0,349
261,550	-0,007	0,349
261,600	-0,007	0,347
261,650	-0,007	0,347
261,700	-0,007	0,345
261,750	-0,008	0,344
261,800	-0,008	0,342
261,850	-0,008	0,342
261,900	-0,009	0,340
261,950	-0,008	0,340
262,000	-0,009	0,338
262,050	-0,009	0,338
262,100	-0,009	0,336
262,150	-0,009	0,336
262,200	-0,010	0,334
262,250	-0,010	0,334
262,300	-0,010	0,331
262,350	-0,010	0,331
262,400	-0,010	0,329
262,450	-0,011	0,329
262,500	-0,010	0,327
262,550	-0,011	0,327
262,600	-0,011	0,324
262,650	-0,011	0,324
262,700	-0,011	0,322
262,750	-0,011	0,322
262,800	-0,012	0,320
262,850	-0,012	0,320
262,900	-0,012	0,318
262,950	-0,012	0,317
263,000	-0,012	0,315
263,050	-0,012	0,315
263,100	-0,013	0,312
263,150	-0,013	0,312
263,200	-0,013	0,310
263,250	-0,013	0,309
263,300	-0,013	0,307
263,350	-0,013	0,307
263,400	-0,013	0,304
263,450	-0,014	0,304
263,500	-0,014	0,301
263,550	-0,014	0,300
263,600	-0,014	0,298
263,650	-0,014	0,298
263,700	-0,014	0,295
263,750	-0,014	0,294
263,800	-0,015	0,291
263,850	-0,014	0,291
263,900	-0,015	0,288
263,950	-0,015	0,288
264,000	-0,015	0,285
264,050	-0,015	0,284
264,100	-0,015	0,281
264,150	-0,015	0,281
264,200	-0,015	0,278
264,250	-0,015	0,277
264,300	-0,015	0,275
264,350	-0,016	0,274
264,400	-0,015	0,271
264,450	-0,016	0,271
264,500	-0,016	0,268
264,550	-0,016	0,267
264,600	-0,016	0,264
264,650	-0,016	0,264
264,700	-0,017	0,261
264,750	-0,017	0,260
264,800	-0,017	0,257
264,850	-0,017	0,256
264,900	-0,017	0,253
264,950	-0,017	0,252
265,000	-0,017	0,250
265,050	-0,017	0,249
265,100	-0,017	0,246
265,150	-0,018	0,245
265,200	-0,018	0,242
265,250	-0,018	0,241
265,300	-0,018	0,237
265,350	-0,018	0,237
265,400	-0,018	0,233
265,450	-0,018	0,233
265,500	-0,019	0,229
265,550	-0,019	0,229
265,600	-0,019	0,225
265,650	-0,019	0,225
265,700	-0,019	0,222
265,750	-0,019	0,221
265,800	-0,019	0,218
265,850	-0,019	0,217
265,900	-0,020	0,214
265,950	-0,020	0,214
266,000	-0,020	0,211
266,050	-0,020	0,210
266,100	-0,020	0,207
266,150	-0,020	0,207
266,200	-0,020	0,204
266,250	-0,020	0,203
266,300	-0,020	0,200
266,350	-0,020	0,200
266,400	-0,020	0,197
266,450	-0,021	0,196
266,500	-0,021	0,193
266,550	-0,021	0,192
266,600	-0,021	0,190
266,650	-0,021	0,189
266,700	-0,021	0,186
266,750	-0,022	0,185
266,800	-0,022	0,182
266,850	-0,022	0,181
266,900	-0,022	0,178
266,950	-0,022	0,177
267,000	-0,022	0,174
267,050	-0,023	0,173
267,100	-0,023	0,170
267,150	-0,023	0,169
267,200	-0,023	0,167
267,250	-0,023	0,165
267,300	-0,024	0,162
267,350	-0,024	0,161
267,400	-0,024	0,158
267,450	-0,025	0,156
267,500	-0,025	0,153
267,550	-0,025	0,152
267,600	-0,025	0,150
267,650	-0,025	0,148
267,700	-0,025	0,146
267,750	-0,025	0,145
267,800	-0,025	0,143
267,850	-0,025	0,142
267,900	-0,026	0,139
267,950	-0,026	0,139
268,000	-0,026	0,136
268,050	-0,026	0,135
268,100	-0,026	0,133
268,150	-0,027	0,132
268,200	-0,026	0,130
268,250	-0,027	0,129
268,300	-0,027	0,127
268,350	-0,027	0,127
268,400	-0,027	0,125
268,450	-0,027	0,125
268,500	-0,027	0,123
268,550	-0,027	0,123
268,600	-0,027	0,121
268,650	-0,028	0,121
268,700	-0,026	0,121
268,750	-0,025	0,121
268,800	-0,024	0,121
268,850	-0,023	0,122
268,900	-0,023	0,122
268,950	-0,022	0,123
269,000	-0,022	0,122
269,050	-0,022	0,123
269,100	-0,022	0,123
269,150	-0,022	0,123
269,200	-0,021	0,123
269,250	-0,020	0,124
269,300	-0,019	0,124
269,350	-0,019	0,125
269,400	-0,018	0,125
269,450	-0,019	0,125
269,500	-0,018	0,125
269,550	-0,018	0,125
269,600	-0,018	0,126
269,650	-0,017	0,126
269,700	-0,016	0,126
269,750	-0,015	0,128
269,800	-0,015	0,127
269,850	-0,015	0,128
269,900	-0,015	0,128
269,950	-0,014	0,129
270,000	-0,014	0,128
270,050	-0,014	0,129
270,100	-0,014	0,129
270,150	-0,013	0,130
270,200	-0,012	0,130
270,250	-0,011	0,131
270,300	-0,010	0,132
270,350	-0,010	0,133
270,400	-0,010	0,133
270,450	-0,009	0,134
270,500	-0,009	0,134
270,550	-0,009	0,135
270,600	-0,008	0,135
270,650	-0,008	0,135
270,700	-0,009	0,135
270,750	-0,008	0,136
270,800	-0,008	0,136
270,850	-0,007	0,136
270,900	-0,006	0,137
270,950	-0,006	0,138
271,000	-0,006	0,138
271,050	-0,005	0,139
271,100	-0,005	0,140
271,150	-0,005	0,140
271,200	-0,005	0,140
271,250	-0,004	0,141
271,300	-0,004	0,142
271,350	-0,004	0,142
271,400	-0,003	0,142
271,450	-0,003	0,143
271,500	-0,003	0,144
271,550	-0,002	0,144
271,600	-0,002	0,145
271,650	-0,002	0,145
271,700	-0,001	0,146
271,750	-0,001	0,146
271,800	-7,570E-4	0,147
271,850	-6,080E-4	0,148
271,900	-4,432E-4	0,148
271,950	-4,261E-4	0,148
272,000	-2,174E-4	0,149
272,050	-2,454E-5	0,149
272,100	8,411E-5	0,150
272,150	3,710E-4	0,150
272,200	3,978E-4	0,151
272,250	1,122E-4	0,150
272,300	4,052E-4	0,151
272,350	3,441E-4	0,151
272,400	2,684E-4	0,151
272,450	4,149E-4	0,151
272,500	4,576E-4	0,152
272,550	7,006E-4	0,151
272,600	5,968E-4	0,152
272,650	5,529E-4	0,151
272,700	8,837E-4	0,152
272,750	9,349E-4	0,152
272,800	8,116E-4	0,152
272,850	0,001	0,152
272,900	7,506E-4	0,153
272,950	8,861E-4	0,152
273,000	0,001	0,153
273,050	0,001	0,152
273,100	0,001	0,153
273,150	7,506E-4	0,152
273,200	7,128E-4	0,153
273,250	8,824E-4	0,152
273,300	8,214E-4	0,153
273,350	9,691E-4	0,152
273,400	9,935E-4	0,153
273,450	0,001	0,152
273,500	9,862E-4	0,153
273,550	9,410E-4	0,152
273,600	6,530E-4	0,153
273,650	0,001	0,152
273,700	9,105E-4	0,153
273,750	7,860E-4	0,152
273,800	8,495E-4	0,153
273,850	7,445E-4	0,152
273,900	9,557E-4	0,153
273,950	0,001	0,152
274,000	0,001	0,153
274,050	0,001	0,152
274,100	0,002	0,154
274,150	0,002	0,153
274,200	0,002	0,155
274,250	0,002	0,154
274,300	0,003	0,156
274,350	0,002	0,155
274,400	0,003	0,157
274,450	0,003	0,156
274,500	0,003	0,157
274,550	0,003	0,157
274,600	0,003	0,158
274,650	0,004	0,158
274,700	0,004	0,159
274,750	0,004	0,158
274,800	0,004	0,160
274,850	0,005	0,160
274,900	0,005	0,162
274,950	0,005	0,161
275,000	0,006	0,163
275,050	0,006	0,163
275,100	0,006	0,165
275,150	0,006	0,164
275,200	0,006	0,166
275,250	0,007	0,166
275,300	0,007	0,168
275,350	0,007	0,168
275,400	0,007	0,170
275,450	0,008	0,170
275,500	0,008	0,172
275,550	0,008	0,172
275,600	0,009	0,174
275,650	0,009	0,174
275,700	0,009	0,175
275,750	0,009	0,175
275,800	0,009	0,177
275,850	0,009	0,176
275,900	0,010	0,179
275,950	0,010	0,179
276,000	0,011	0,183
276,050	0,011	0,183
276,100	0,011	0,185
276,150	0,012	0,186
276,200	0,012	0,189
276,250	0,012	0,189
276,300	0,013	0,192
276,350	0,012	0,191
276,400	0,013	0,194
276,450	0,013	0,194
276,500	0,012	0,196
276,550	0,013	0,196
276,600	0,013	0,199
276,650	0,014	0,199
276,700	0,014	0,202
276,750	0,014	0,202
276,800	0,014	0,205
276,850	0,014	0,205
276,900	0,014	0,208
276,950	0,014	0,208
277,000	0,015	0,211
277,050	0,015	0,211
277,100	0,015	0,214
277,150	0,015	0,214
277,200	0,015	0,216
277,250	0,015	0,217
277,300	0,015	0,219
277,350	0,015	0,219
277,400	0,016	0,222
277,450	0,016	0,223
277,500	0,016	0,226
277,550	0,016	0,226
277,600	0,016	0,229
277,650	0,017	0,230
277,700	0,016	0,232
277,750	0,017	0,233
277,800	0,017	0,236
277,850	0,017	0,236
277,900	0,017	0,239
277,950	0,017	0,240
278,000	0,018	0,243
278,050	0,018	0,244
278,100	0,018	0,247
278,150	0,018	0,248
278,200	0,018	0,251
278,250	0,018	0,251
278,300	0,018	0,255
278,350	0,018	0,255
278,400	0,018	0,258
278,450	0,018	0,259
278,500	0,019	0,262
278,550	0,019	0,263
278,600	0,019	0,266
278,650	0,019	0,267
278,700	0,019	0,270
278,750	0,019	0,271
278,800	0,019	0,274
278,850	0,020	0,275
278,900	0,020	0,277
278,950	0,020	0,279
279,000	0,020	0,282
279,050	0,021	0,283
279,100	0,020	0,285
279,150	0,020	0,286
279,200	0,021	0,289
279,250	0,021	0,291
279,300	0,021	0,293
279,350	0,021	0,294
279,400	0,021	0,297
279,450	0,021	0,297
279,500	0,021	0,300
279,550	0,021	0,301
279,600	0,022	0,304
279,650	0,022	0,305
279,700	0,022	0,307
279,750	0,022	0,308
279,800	0,022	0,310
279,850	0,022	0,311
279,900	0,022	0,314
279,950	0,022	0,314
280,000	0,022	0,317
280,050	0,022	0,317
280,100	0,022	0,319
280,150	0,023	0,320
280,200	0,023	0,322
280,250	0,022	0,322
280,300	0,023	0,325
280,350	0,022	0,325
280,400	0,022	0,327
280,450	0,021	0,327
280,500	0,021	0,328
280,550	0,021	0,327
280,600	0,021	0,328
280,650	0,021	0,328
280,700	0,020	0,329
280,750	0,020	0,328
280,800	0,020	0,329
280,850	0,019	0,328
280,900	0,019	0,329
280,950	0,018	0,328
281,000	0,018	0,329
281,050	0,018	0,328
281,100	0,018	0,328
281,150	0,017	0,327
281,200	0,017	0,328
281,250	0,016	0,327
281,300	0,016	0,327
281,350	0,015	0,326
281,400	0,015	0,326
281,450	0,014	0,325
281,500	0,013	0,325
281,550	0,013	0,324
281,600	0,013	0,324
281,650	0,012	0,323
281,700	0,012	0,323
281,750	0,012	0,322
281,800	0,012	0,323
281,850	0,012	0,322
281,900	0,011	0,322
281,950	0,011	0,321
282,000	0,011	0,322
282,050	0,011	0,321
282,100	0,011	0,321
282,150	0,010	0,320
282,200	0,010	0,321
282,250	0,009	0,320
282,300	0,010	0,320
282,350	0,009	0,319
282,400	0,009	0,319
282,450	0,009	0,318
282,500	0,008	0,318
282,550	0,008	0,318
282,600	0,008	0,318
282,650	0,008	0,318
282,700	0,007	0,317
282,750	0,007	0,317
282,800	0,007	0,316
282,850	0,006	0,316
282,900	0,006	0,315
282,950	0,006	0,315
283,000	0,005	0,314
283,050	0,005	0,314
283,100	0,005	0,313
283,150	0,005	0,313
283,200	0,004	0,312
283,250	0,004	0,312
283,300	0,004	0,311
283,350	0,004	0,311
283,400	0,003	0,310
283,450	0,003	0,310
283,500	0,003	0,309
283,550	0,002	0,309
283,600	0,002	0,308
283,650	0,002	0,308
283,700	0,002	0,307
283,750	0,002	0,307
283,800	0,002	0,307
283,850	0,001	0,306
283,900	0,001	0,306
283,950	0,002	0,306
284,000	0,001	0,305
284,050	0,001	0,305
284,100	0,001	0,305
284,150	0,001	0,305
284,200	0,001	0,304
284,250	8,873E-4	0,304
284,300	0,001	0,304
284,350	0,001	0,304
284,400	0,001	0,304
284,450	0,001	0,304
284,500	0,001	0,304
284,550	0,001	0,304
284,600	0,001	0,304
284,650	0,001	0,304
284,700	0,001	0,304
284,750	0,001	0,304
284,800	0,001	0,303
284,850	8,898E-4	0,303
284,900	0,001	0,303
284,950	9,618E-4	0,303
285,000	0,001	0,303
285,050	-4,651E-5	0,303
285,100	-8,827E-4	0,301
285,150	-0,002	0,300
285,200	-0,002	0,299
285,250	-0,002	0,298
285,300	-0,002	0,297
285,350	-0,003	0,297
285,400	-0,003	0,295
285,450	-0,003	0,295
285,500	-0,004	0,293
285,550	-0,004	0,293
285,600	-0,004	0,292
285,650	-0,004	0,292
285,700	-0,004	0,291
285,750	-0,004	0,290
285,800	-0,005	0,288
285,850	-0,005	0,288
285,900	-0,006	0,286
285,950	-0,006	0,286
286,000	-0,006	0,284
286,050	-0,006	0,284
286,100	-0,006	0,282
286,150	-0,007	0,282
286,200	-0,007	0,280
286,250	-0,007	0,280
286,300	-0,007	0,278
286,350	-0,008	0,278
286,400	-0,008	0,276
286,450	-0,008	0,276
286,500	-0,008	0,274
286,550	-0,009	0,274
286,600	-0,009	0,272
286,650	-0,009	0,271
286,700	-0,009	0,269
286,750	-0,010	0,269
286,800	-0,010	0,267
286,850	-0,010	0,266
286,900	-0,011	0,263
286,950	-0,011	0,262
287,000	-0,011	0,260
287,050	-0,011	0,259
287,100	-0,012	0,257
287,150	-0,011	0,256
287,200	-0,012	0,254
287,250	-0,012	0,253
287,300	-0,012	0,251
287,350	-0,012	0,250
287,400	-0,012	0,248
287,450	-0,012	0,247
287,500	-0,013	0,245
287,550	-0,013	0,244
287,600	-0,012	0,242
287,650	-0,013	0,241
287,700	-0,013	0,238
287,750	-0,013	0,238
287,800	-0,013	0,235
287,850	-0,014	0,235
287,900	-0,014	0,232
287,950	-0,014	0,232
288,000	-0,014	0,229
288,050	-0,014	0,229
288,100	-0,014	0,227
288,150	-0,015	0,226
288,200	-0,015	0,223
288,250	-0,015	0,223
288,300	-0,015	0,220
288,350	-0,015	0,220
288,400	-0,015	0,217
288,450	-0,015	0,217
288,500	-0,015	0,214
288,550	-0,016	0,214
288,600	-0,016	0,211
288,650	-0,016	0,211
288,700	-0,016	0,209
288,750	-0,016	0,209
288,800	-0,016	0,206
288,850	-0,016	0,206
288,900	-0,016	0,204
288,950	-0,016	0,203
289,000	-0,016	0,201
289,050	-0,017	0,201
289,100	-0,016	0,198
289,150	-0,017	0,198
289,200	-0,017	0,196
289,250	-0,016	0,196
289,300	-0,017	0,194
289,350	-0,017	0,194
289,400	-0,017	0,192
289,450	-0,017	0,192
289,500	-0,017	0,190
289,550	-0,016	0,191
289,600	-0,016	0,189
289,650	-0,015	0,190
289,700	-0,015	0,189
289,750	-0,014	0,191
289,800	-0,013	0,190
289,850	-0,013	0,191
289,900	-0,012	0,190
289,950	-0,011	0,192
290,000	-0,011	0,191
290,050	-0,010	0,193
290,100	-0,010	0,192
290,150	-0,009	0,194
290,200	-0,009	0,193
290,250	-0,009	0,194
290,300	-0,009	0,193
290,350	-0,008	0,195
290,400	-0,008	0,194
290,450	-0,008	0,195
290,500	-0,008	0,195
290,550	-0,008	0,196
290,600	-0,008	0,195
290,650	-0,007	0,196
290,700	-0,007	0,195
290,750	-0,007	0,197
290,800	-0,007	0,196
290,850	-0,006	0,197
290,900	-0,006	0,196
290,950	-0,006	0,198
291,000	-0,006	0,197
291,050	-0,006	0,199
291,100	-0,005	0,198
291,150	-0,005	0,199
291,200	-0,005	0,198
291,250	-0,005	0,199
291,300	-0,005	0,199
291,350	-0,004	0,200
291,400	-0,004	0,199
291,450	-0,003	0,201
291,500	-0,004	0,200
291,550	-0,003	0,202
291,600	-0,003	0,201
291,650	-0,003	0,203
291,700	-0,002	0,202
291,750	-0,002	0,204
291,800	-0,002	0,203
291,850	-0,001	0,204
291,900	-0,001	0,204
291,950	-7,850E-4	0,206
292,000	-5,421E-4	0,205
292,050	-2,430E-4	0,207
292,100	-3,199E-4	0,206
292,150	-7,458E-5	0,207
292,200	-1,002E-4	0,206
292,250	9,998E-5	0,208
292,300	2,330E-4	0,207
292,350	4,357E-4	0,208
292,400	3,234E-4	0,207
292,450	2,355E-4	0,209
292,500	4,552E-4	0,208
292,550	7,714E-4	0,209
292,600	5,504E-4	0,208
292,650	5,406E-4	0,209
292,700	6,578E-4	0,208
292,750	8,605E-4	0,210
292,800	8,470E-4	0,209
292,850	9,459E-4	0,210
292,900	6,786E-4	0,209
292,950	6,591E-4	0,210
293,000	0,001	0,209
293,050	7,445E-4	0,210
293,100	0,001	0,209
293,150	0,001	0,210
293,200	0,001	0,210
293,250	9,142E-4	0,210
293,300	8,934E-4	0,209
293,350	8,763E-4	0,210
293,400	9,777E-4	0,209
293,450	8,336E-4	0,210
293,500	0,001	0,210
293,550	7,482E-4	0,210
293,600	9,362E-4	0,210
293,650	8,934E-4	0,210
293,700	0,001	0,209
293,750	8,068E-4	0,210
293,800	0,001	0,210
293,850	0,002	0,211
293,900	0,002	0,211
293,950	0,002	0,212
294,000	0,002	0,212
294,050	0,003	0,213
294,100	0,003	0,213
294,150	0,003	0,214
294,200	0,004	0,214
294,250	0,004	0,215
294,300	0,004	0,215
294,350	0,005	0,217
294,400	0,005	0,217
294,450	0,005	0,218
294,500	0,005	0,218
294,550	0,005	0,219
294,600	0,005	0,219
294,650	0,006	0,221
294,700	0,006	0,221
294,750	0,006	0,222
294,800	0,006	0,222
294,850	0,007	0,223
294,900	0,007	0,223
294,950	0,007	0,225
295,000	0,007	0,225
295,050	0,007	0,226
295,100	0,007	0,226
295,150	0,008	0,227
295,200	0,008	0,227
295,250	0,008	0,229
295,300	0,008	0,229
295,350	0,008	0,230
295,400	0,009	0,230
295,450	0,009	0,232
295,500	0,009	0,232
295,550	0,009	0,233
295,600	0,009	0,234
295,650	0,009	0,235
295,700	0,010	0,235
295,750	0,010	0,236
295,800	0,010	0,237
295,850	0,011	0,238
295,900	0,011	0,239
295,950	0,011	0,241
296,000	0,011	0,241
296,050	0,012	0,243
296,100	0,012	0,244
296,150	0,012	0,245
296,200	0,012	0,246
296,250	0,012	0,248
296,300	0,012	0,248
296,350	0,012	0,249
296,400	0,013	0,250
296,450	0,013	0,252
296,500	0,013	0,253
296,550	0,013	0,253
296,600	0,013	0,254
296,650	0,013	0,255
296,700	0,013	0,256
296,750	0,013	0,257
296,800	0,013	0,258
296,850	0,014	0,259
296,900	0,014	0,260
296,950	0,014	0,261
297,000	0,014	0,262
297,050	0,014	0,263
297,100	0,014	0,264
297,150	0,015	0,265
297,200	0,014	0,265
297,250	0,015	0,267
297,300	0,015	0,268
297,350	0,015	0,269
297,400	0,015	0,270
297,450	0,015	0,270
297,500	0,015	0,272
297,550	0,015	0,273
297,600	0,015	0,273
297,650	0,015	0,274
297,700	0,015	0,275
297,750	0,015	0,276
297,800	0,016	0,277
297,850	0,016	0,277
297,900	0,016	0,279
297,950	0,016	0,279
298,000	0,016	0,280
298,050	0,016	0,280
298,100	0,015	0,281
298,150	0,015	0,281
298,200	0,015	0,281
298,250	0,015	0,281
298,300	0,015	0,282
298,350	0,015	0,282
298,400	0,015	0,282
298,450	0,015	0,282
298,500	0,015	0,283
298,550	0,015	0,283
298,600	0,016	0,284
298,650	0,015	0,283
298,700	0,015	0,284
298,750	0,015	0,284
298,800	0,015	0,284
298,850	0,015	0,284
298,900	0,014	0,284
298,950	0,014	0,284
299,000	0,013	0,284
299,050	0,013	0,283
299,100	0,012	0,283
299,150	0,012	0,283
299,200	0,012	0,283
299,250	0,012	0,282
299,300	0,012	0,283
299,350	0,012	0,282
299,400	0,012	0,283
299,450	0,012	0,282
299,500	0,012	0,283
299,550	0,012	0,282
299,600	0,012	0,283
299,650	0,012	0,282
299,700	0,012	0,283
299,750	0,012	0,282
299,800	0,012	0,283
299,850	0,011	0,282
299,900	0,011	0,282
299,950	0,011	0,281
300,000	0,011	0,282
300,050	0,010	0,281
300,100	0,010	0,282
300,150	0,010	0,280
300,200	0,010	0,281
300,250	0,010	0,280
300,300	0,010	0,281
300,350	0,009	0,280
300,400	0,009	0,280
300,450	0,009	0,279
300,500	0,008	0,280
300,550	0,008	0,279
300,600	0,008	0,279
300,650	0,007	0,278
300,700	0,007	0,278
300,750	0,007	0,277
300,800	0,006	0,277
300,850	0,006	0,276
300,900	0,005	0,276
300,950	0,005	0,275
301,000	0,005	0,275
301,050	0,004	0,273
301,100	0,004	0,274
301,150	0,003	0,272
301,200	0,003	0,273
301,250	0,003	0,271
301,300	0,003	0,272
301,350	0,002	0,270
301,400	0,003	0,271
301,450	0,002	0,269
301,500	0,002	0,270
301,550	0,002	0,269
301,600	0,002	0,270
301,650	0,002	0,268
301,700	0,002	0,269
301,750	0,002	0,268
301,800	0,001	0,269
301,850	0,002	0,268
301,900	0,001	0,268
301,950	0,001	0,267
302,000	0,001	0,268
302,050	0,001	0,267
302,100	0,001	0,268
302,150	0,001	0,267
302,200	0,001	0,267
302,250	9,362E-4	0,266
302,300	0,001	0,268
302,350	0,001	0,267
302,400	8,849E-4	0,267
302,450	0,001	0,266
302,500	9,618E-4	0,267
302,550	9,557E-4	0,266
302,600	7,860E-4	0,267
302,650	7,494E-4	0,266
302,700	7,177E-4	0,267
302,750	0,001	0,266
302,800	9,496E-4	0,267
302,850	6,823E-4	0,266
302,900	7,445E-4	0,267
302,950	9,081E-4	0,266
303,000	8,568E-4	0,267
303,050	0,001	0,266
303,100	9,056E-4	0,267
303,150	0,001	0,266
303,200	8,568E-4	0,267
303,250	9,484E-4	0,266
303,300	8,458E-4	0,267
303,350	9,862E-4	0,266
303,400	9,178E-4	0,267
303,450	9,093E-4	0,266
303,500	5,272E-4	0,267
303,550	3,588E-4	0,265
303,600	-2,223E-4	0,266
303,650	-5,616E-4	0,264
303,700	-4,652E-4	0,265
303,750	-5,299E-4	0,264
303,800	-0,001	0,264
303,850	-0,001	0,263
303,900	-0,002	0,263
303,950	-0,002	0,261
304,000	-0,002	0,262
304,050	-0,003	0,260
304,100	-0,003	0,261
304,150	-0,002	0,259
304,200	-0,003	0,259
304,250	-0,003	0,258
304,300	-0,003	0,258
304,350	-0,003	0,257
304,400	-0,003	0,258
304,450	-0,004	0,256
304,500	-0,004	0,256
304,550	-0,004	0,255
304,600	-0,005	0,255
304,650	-0,005	0,254
304,700	-0,005	0,254
304,750	-0,005	0,252
304,800	-0,005	0,253
304,850	-0,006	0,251
304,900	-0,005	0,252
304,950	-0,006	0,250
305,000	-0,006	0,251
305,050	-0,006	0,249
305,100	-0,006	0,249
305,150	-0,006	0,248
305,200	-0,007	0,248
305,250	-0,007	0,247
305,300	-0,007	0,247
305,350	-0,007	0,245
305,400	-0,007	0,246
305,450	-0,007	0,244
305,500	-0,008	0,245
305,550	-0,008	0,243
305,600	-0,008	0,243
305,650	-0,008	0,242
305,700	-0,008	0,242
305,750	-0,008	0,241
305,800	-0,008	0,241
305,850	-0,008	0,239
305,900	-0,009	0,239
305,950	-0,009	0,238
306,000	-0,009	0,238
306,050	-0,009	0,237
306,100	-0,009	0,237
306,150	-0,009	0,235
306,200	-0,010	0,235
306,250	-0,010	0,233
306,300	-0,010	0,233
306,350	-0,010	0,232
306,400	-0,010	0,232
306,450	-0,011	0,230
306,500	-0,010	0,230
306,550	-0,011	0,229
306,600	-0,011	0,228
306,650	-0,011	0,227
306,700	-0,011	0,227
306,750	-0,011	0,226
306,800	-0,011	0,225
306,850	-0,011	0,225
306,900	-0,011	0,224
306,950	-0,011	0,223
307,000	-0,011	0,223
307,050	-0,011	0,222
307,100	-0,012	0,222
307,150	-0,012	0,221
307,200	-0,012	0,221
307,250	-0,012	0,220
307,300	-0,012	0,220
307,350	-0,012	0,219
307,400	-0,012	0,219
307,450	-0,012	0,218
307,500	-0,011	0,218
307,550	-0,010	0,218
307,600	-0,009	0,219
307,650	-0,008	0,219
307,700	-0,008	0,220
307,750	-0,008	0,220
307,800	-0,008	0,220
307,850	-0,008	0,220
307,900	-0,007	0,220
307,950	-0,007	0,221
308,000	-0,006	0,221
308,050	-0,006	0,221
308,100	-0,006	0,222
308,150	-0,006	0,222
308,200	-0,005	0,222
308,250	-0,006	0,222
308,300	-0,005	0,223
308,350	-0,005	0,222
308,400	-0,005	0,223
308,450	-0,005	0,223
308,500	-0,005	0,223
308,550	-0,005	0,223
308,600	-0,004	0,223
308,650	-0,004	0,223
308,700	-0,004	0,224
308,750	-0,003	0,224
308,800	-0,003	0,224
308,850	-0,003	0,224
308,900	-0,003	0,225
308,950	-0,002	0,225
309,000	-0,002	0,226
309,050	-0,002	0,226
309,100	-0,002	0,226
309,150	-0,002	0,227
309,200	-0,001	0,227
309,250	-0,001	0,227
309,300	-8,143E-4	0,228
309,350	-5,555E-4	0,228
309,400	-4,579E-4	0,228
309,450	-1,185E-4	0,229
309,500	-1,515E-4	0,229
309,550	1,818E-4	0,229
309,600	2,819E-4	0,230
309,650	4,088E-4	0,230
309,700	5,236E-4	0,230
309,750	6,432E-4	0,231
309,800	1,891E-4	0,230
309,850	4,381E-4	0,230
309,900	8,544E-4	0,231
309,950	8,751E-4	0,231
310,000	5,858E-4	0,231
310,050	0,001	0,231
310,100	8,898E-4	0,231
310,150	8,068E-4	0,231
310,200	9,264E-4	0,231
310,250	9,471E-4	0,232
310,300	0,001	0,231
310,350	0,001	0,232
310,400	9,740E-4	0,231
310,450	8,788E-4	0,232
310,500	5,944E-4	0,231
310,550	8,654E-4	0,232
310,600	0,001	0,231
310,650	0,001	0,232
310,700	8,348E-4	0,231
310,750	8,959E-4	0,232
310,800	9,655E-4	0,232
310,850	7,006E-4	0,232
310,900	8,580E-4	0,231
310,950	0,002	0,232
311,000	0,002	0,232
311,050	0,002	0,233
311,100	0,003	0,233
311,150	0,003	0,234
311,200	0,003	0,234
311,250	0,003	0,235
311,300	0,003	0,235
311,350	0,004	0,236
311,400	0,004	0,236
311,450	0,004	0,237
311,500	0,004	0,237
311,550	0,004	0,238
311,600	0,005	0,238
311,650	0,005	0,239
311,700	0,005	0,239
311,750	0,005	0,240
311,800	0,005	0,240
311,850	0,006	0,241
311,900	0,006	0,241
311,950	0,006	0,242
312,000	0,006	0,242
312,050	0,007	0,244
312,100	0,007	0,243
312,150	0,007	0,245
312,200	0,007	0,244
312,250	0,007	0,246
312,300	0,007	0,245
312,350	0,007	0,247
312,400	0,008	0,246
312,450	0,008	0,248
312,500	0,008	0,247
312,550	0,008	0,248
312,600	0,008	0,247
312,650	0,008	0,249
312,700	0,008	0,249
312,750	0,009	0,250
312,800	0,009	0,250
312,850	0,009	0,251
312,900	0,009	0,251
312,950	0,009	0,252
313,000	0,009	0,252
313,050	0,009	0,253
313,100	0,010	0,253
313,150	0,010	0,254
313,200	0,010	0,253
313,250	0,009	0,254
313,300	0,010	0,254
313,350	0,010	0,256
313,400	0,010	0,255
313,450	0,010	0,257
313,500	0,010	0,256
313,550	0,010	0,257
313,600	0,011	0,257
313,650	0,011	0,258
313,700	0,011	0,257
313,750	0,011	0,259
313,800	0,011	0,259
313,850	0,011	0,260
313,900	0,011	0,260
313,950	0,011	0,261
314,000	0,011	0,260
314,050	0,011	0,262
314,100	0,012	0,261
314,150	0,012	0,263
314,200	0,011	0,262
314,250	0,011	0,263
314,300	0,010	0,261
314,350	0,010	0,262
314,400	0,010	0,261
314,450	0,010	0,262
314,500	0,009	0,261
314,550	0,009	0,262
314,600	0,009	0,261
314,650	0,009	0,262
314,700	0,009	0,261
314,750	0,009	0,262
314,800	0,009	0,261
314,850	0,009	0,262
314,900	0,009	0,260
314,950	0,009	0,262
315,000	0,008	0,260
315,050	0,008	0,261
315,100	0,008	0,260
315,150	0,008	0,261
315,200	0,008	0,260
315,250	0,008	0,261
315,300	0,007	0,260
315,350	0,007	0,261
315,400	0,007	0,259
315,450	0,007	0,260
315,500	0,007	0,259
315,550	0,006	0,260
315,600	0,006	0,259
315,650	0,006	0,260
315,700	0,006	0,258
315,750	0,006	0,259
315,800	0,005	0,258
315,850	0,005	0,259
315,900	0,005	0,258
315,950	0,005	0,258
316,000	0,004	0,257
316,050	0,004	0,258
316,100	0,004	0,256
316,150	0,003	0,257
316,200	0,003	0,255
316,250	0,003	0,257
316,300	0,003	0,255
316,350	0,003	0,256
316,400	0,003	0,254
316,450	0,002	0,255
316,500	0,002	0,254
316,550	0,002	0,255
316,600	0,002	0,253
316,650	0,002	0,254
316,700	0,002	0,253
316,750	0,001	0,254
316,800	9,862E-4	0,252
316,850	0,001	0,253
316,900	0,001	0,252
316,950	0,001	0,253
317,000	0,001	0,252
317,050	8,019E-4	0,253
317,100	0,001	0,252
317,150	9,606E-4	0,253
317,200	7,213E-4	0,251
317,250	6,456E-4	0,252
317,300	9,691E-4	0,251
317,350	9,032E-4	0,252
317,400	9,569E-4	0,251
317,450	8,995E-4	0,252
317,500	6,310E-4	0,251
317,550	7,531E-4	0,252
317,600	0,001	0,251
317,650	8,910E-4	0,252
317,700	0,001	0,251
317,750	8,458E-4	0,252
317,800	8,824E-4	0,251
317,850	6,969E-4	0,252
317,900	9,313E-4	0,251
317,950	6,823E-4	0,252
318,000	8,092E-4	0,251
318,050	6,285E-4	0,252
318,100	8,031E-4	0,251
318,150	8,373E-4	0,252
318,200	4,515E-4	0,251
318,250	-4,188E-4	0,251
318,300	-0,001	0,250
318,350	-0,001	0,250
318,400	-0,001	0,249
318,450	-0,002	0,249
318,500	-0,002	0,248
318,550	-0,003	0,247
318,600	-0,003	0,246
318,650	-0,003	0,246
318,700	-0,003	0,245
318,750	-0,004	0,245
318,800	-0,004	0,243
318,850	-0,004	0,244
318,900	-0,005	0,242
318,950	-0,005	0,243
319,000	-0,005	0,241
319,050	-0,005	0,241
319,100	-0,005	0,240
319,150	-0,006	0,240
319,200	-0,006	0,239
319,250	-0,006	0,239
319,300	-0,006	0,238
319,350	-0,006	0,238
319,400	-0,006	0,237
319,450	-0,006	0,238
319,500	-0,007	0,236
319,550	-0,007	0,237
319,600	-0,007	0,236
319,650	-0,007	0,236
319,700	-0,007	0,235
319,750	-0,007	0,236
319,800	-0,007	0,235
319,850	-0,007	0,235
319,900	-0,007	0,235
319,950	-0,007	0,235
320,000	-0,007	0,234
320,050	-0,007	0,235
320,100	-0,007	0,234
320,150	-0,006	0,235
320,200	-0,006	0,235
320,250	-0,006	0,235
320,300	-0,006	0,234
320,350	-0,006	0,235
320,400	-0,006	0,235
320,450	-0,006	0,235
320,500	-0,006	0,235
320,550	-0,006	0,235
320,600	-0,006	0,235
320,650	-0,006	0,235
320,700	-0,006	0,235
320,750	-0,005	0,235
320,800	-0,005	0,235
320,850	-0,005	0,235
320,900	-0,005	0,235
320,950	-0,005	0,235
321,000	-0,005	0,235
321,050	-0,005	0,236
321,100	-0,004	0,235
321,150	-0,004	0,236
321,200	-0,004	0,235
321,250	-0,004	0,236
321,300	-0,003	0,236
321,350	-0,003	0,237
321,400	-0,003	0,236
321,450	-0,003	0,237
321,500	-0,003	0,237
321,550	-0,002	0,237
321,600	-0,003	0,237
321,650	-0,002	0,237
321,700	-0,002	0,238
321,750	-0,002	0,238
321,800	-0,001	0,238
321,850	-0,001	0,238
321,900	-0,001	0,238
321,950	-6,898E-4	0,239
322,000	-5,897E-4	0,239
322,050	-2,211E-4	0,239
322,100	1,696E-4	0,240
322,150	1,891E-4	0,240
322,200	1,268E-4	0,240
322,250	5,858E-4	0,240
322,300	6,835E-4	0,240
322,350	8,605E-4	0,241
322,400	9,227E-4	0,241
322,450	5,297E-4	0,240
322,500	9,545E-4	0,241
322,550	9,056E-4	0,241
322,600	8,104E-4	0,241
322,650	7,689E-4	0,241
322,700	8,873E-4	0,241
322,750	8,849E-4	0,241
322,800	0,001	0,241
322,850	0,001	0,241
322,900	0,001	0,241
322,950	0,001	0,241
323,000	0,001	0,241
323,050	8,409E-4	0,241
323,100	0,001	0,241
323,150	0,001	0,241
323,200	0,001	0,241
323,250	0,001	0,241
323,300	8,568E-4	0,241
323,350	0,001	0,241
323,400	0,001	0,242
323,450	8,409E-4	0,241
323,500	0,001	0,242
323,550	8,092E-4	0,241
323,600	7,335E-4	0,241
323,650	8,580E-4	0,241
323,700	6,127E-4	0,241
323,750	6,383E-4	0,241
323,800	8,239E-4	0,241
323,850	5,345E-4	0,241
323,900	6,371E-4	0,241
323,950	9,679E-4	0,241
324,000	0,001	0,242
324,050	0,001	0,241
324,100	0,002	0,242
324,150	0,002	0,242
324,200	0,003	0,243
324,250	0,003	0,243
324,300	0,003	0,244
324,350	0,003	0,244
324,400	0,004	0,245
324,450	0,004	0,244
324,500	0,004	0,245
324,550	0,004	0,245
324,600	0,004	0,246
324,650	0,004	0,246
324,700	0,004	0,246
324,750	0,004	0,246
324,800	0,005	0,247
324,850	0,005	0,247
324,900	0,005	0,247
324,950	0,005	0,247
325,000	0,005	0,248
325,050	0,005	0,247
325,100	0,005	0,248
325,150	0,005	0,247
325,200	0,005	0,248
325,250	0,005	0,247
325,300	0,005	0,248
325,350	0,005	0,247
325,400	0,005	0,248
325,450	0,005	0,248
325,500	0,005	0,248
325,550	0,004	0,247
325,600	0,004	0,248
325,650	0,004	0,247
325,700	0,004	0,247
325,750	0,004	0,247
325,800	0,004	0,248
325,850	0,003	0,247
325,900	0,003	0,247
325,950	0,003	0,246
326,000	0,003	0,247
326,050	0,003	0,246
326,100	0,003	0,247
326,150	0,002	0,246
326,200	0,002	0,247
326,250	0,002	0,246
326,300	0,002	0,247
326,350	0,002	0,246
326,400	0,002	0,247
326,450	0,002	0,246
326,500	0,002	0,247
326,550	0,002	0,246
326,600	0,002	0,247
326,650	0,002	0,246
326,700	0,002	0,246
326,750	0,002	0,246
326,800	0,002	0,246
326,850	0,002	0,245
326,900	0,002	0,246
326,950	0,002	0,245
327,000	0,001	0,246
327,050	9,276E-4	0,245
327,100	8,995E-4	0,246
327,150	0,001	0,245
327,200	8,446E-4	0,246
327,250	7,579E-4	0,245
327,300	0,001	0,246
327,350	7,054E-4	0,245
327,400	9,520E-4	0,246
327,450	0,001	0,245
327,500	0,001	0,246
327,550	0,001	0,245
327,600	9,154E-4	0,246
327,650	8,361E-4	0,245
327,700	0,001	0,246
327,750	8,116E-4	0,245
327,800	9,410E-4	0,246
327,850	0,001	0,245
327,900	9,203E-4	0,246
327,950	7,030E-4	0,244
328,000	9,618E-4	0,246
328,050	6,627E-4	0,244
328,100	8,251E-4	0,245
328,150	0,001	0,245
328,200	8,031E-4	0,245
328,250	7,592E-4	0,245
328,300	8,507E-4	0,246
328,350	9,142E-4	0,245
328,400	0,001	0,246
328,450	9,581E-4	0,245
328,500	0,001	0,246
328,550	8,080E-4	0,245
328,600	0,001	0,246
328,650	9,594E-4	0,245
328,700	8,715E-4	0,246
328,750	9,252E-4	0,245
328,800	0,001	0,246
328,850	8,641E-4	0,245
328,900	8,129E-4	0,246
328,950	8,788E-4	0,245
329,000	8,776E-4	0,246
329,050	0,001	0,245
329,100	8,446E-4	0,246
329,150	7,347E-4	0,244
329,200	0,001	0,246
329,250	6,725E-4	0,244
329,300	9,972E-4	0,246
329,350	7,567E-4	0,244
329,400	9,081E-4	0,246
329,450	9,923E-4	0,245
329,500	8,800E-4	0,246
329,550	9,899E-4	0,245
329,600	9,203E-4	0,246
329,650	0,001	0,245
329,700	7,286E-4	0,246
329,750	5,211E-4	0,244
329,800	0,001	0,246
329,850	0,001	0,245
329,900	0,001	0,246
329,950	9,484E-4	0,245
330,000	5,565E-4	0,245
330,050	0,001	0,245
330,100	7,714E-4	0,246
330,150	9,142E-4	0,244
330,200	8,361E-4	0,246
330,250	9,532E-4	0,245
330,300	9,288E-4	0,246
330,350	7,140E-4	0,244
330,400	0,001	0,246
330,450	8,019E-4	0,244
330,500	9,777E-4	0,246
330,550	6,749E-4	0,244
330,600	9,874E-4	0,246
330,650	0,001	0,245
330,700	6,371E-4	0,246
330,750	3,040E-5	0,244
330,800	-6,727E-4	0,245
330,850	-0,001	0,243
330,900	-0,001	0,244
330,950	-0,002	0,242
331,000	-0,002	0,243
331,050	-0,002	0,242
331,100	-0,002	0,243
331,150	-0,002	0,242
331,200	-0,002	0,243
331,250	-0,002	0,241
331,300	-0,003	0,242
331,350	-0,002	0,241
331,400	-0,002	0,242
331,450	-0,003	0,241
331,500	-0,003	0,242
331,550	-0,003	0,241
331,600	-0,003	0,242
331,650	-0,003	0,240
331,700	-0,003	0,241
331,750	-0,003	0,240
331,800	-0,003	0,241
331,850	-0,003	0,240
331,900	-0,002	0,242
331,950	-0,003	0,240
332,000	-0,002	0,242
332,050	-0,002	0,241
332,100	-0,002	0,242
332,150	-0,002	0,241
332,200	-0,002	0,242
332,250	-0,001	0,241
332,300	-9,083E-4	0,242
332,350	-9,803E-4	0,241
332,400	-8,619E-4	0,242
332,450	-6,300E-4	0,241
332,500	-5,568E-4	0,242
332,550	-5,543E-4	0,241
332,600	-1,527E-4	0,243
332,650	-1,356E-4	0,242
332,700	1,049E-4	0,243
332,750	1,622E-4	0,242
332,800	3,942E-4	0,243
332,850	4,955E-4	0,242
332,900	5,699E-4	0,243
332,950	2,672E-4	0,242
333,000	7,384E-4	0,243
333,050	7,384E-4	0,242
333,100	5,577E-4	0,243
333,150	7,250E-4	0,242
333,200	7,970E-4	0,243
333,250	7,982E-4	0,242
333,300	0,001	0,244
333,350	8,727E-4	0,242
333,400	0,001	0,244
333,450	0,001	0,243
333,500	0,001	0,244
333,550	9,850E-4	0,243
333,600	0,001	0,244
333,650	0,001	0,243
333,700	0,001	0,244
333,750	0,001	0,243
333,800	9,813E-4	0,244
333,850	0,001	0,243
333,900	6,896E-4	0,244
333,950	0,001	0,243
334,000	-2,332E-5	0,244
334,050	-0,001	0,242
334,100	-0,002	0,242
334,150	-0,003	0,241
334,200	-0,003	0,242
334,250	-0,004	0,240
334,300	-0,004	0,241
334,350	-0,004	0,240
334,400	-0,004	0,240
334,450	-0,004	0,239
334,500	-0,004	0,240
334,550	-0,005	0,238
334,600	-0,004	0,240
334,650	-0,004	0,238
334,700	-0,004	0,240
334,750	-0,004	0,238
334,800	-0,004	0,239
334,850	-0,004	0,238
334,900	-0,004	0,239
334,950	-0,005	0,238
335,000	-0,004	0,239
335,050	-0,004	0,238
335,100	-0,003	0,239
335,150	-0,003	0,238
335,200	-0,003	0,240
335,250	-0,003	0,239
335,300	-0,003	0,240
335,350	-0,003	0,239
335,400	-0,002	0,240
335,450	-0,002	0,239
335,500	-0,002	0,240
335,550	-0,002	0,239
335,600	-0,002	0,240
335,650	-0,002	0,239
335,700	-0,002	0,240
335,750	-0,002	0,239
335,800	-0,002	0,240
335,850	-0,002	0,239
335,900	-0,002	0,241
335,950	-0,001	0,240
336,000	-0,002	0,240
336,050	-0,002	0,240
336,100	-0,002	0,240
336,150	-0,002	0,239
336,200	-0,001	0,241
336,250	-0,002	0,239
336,300	-0,002	0,241
336,350	-0,002	0,240
336,400	-0,002	0,240
336,450	-0,001	0,240
336,500	-0,002	0,241
336,550	-0,002	0,240
336,600	-0,002	0,241
336,650	-0,001	0,240
336,700	-0,001	0,241
336,750	-0,001	0,240
336,800	-0,002	0,240
336,850	-0,002	0,240
336,900	-0,002	0,241
336,950	-0,001	0,240
337,000	-0,002	0,241
337,050	-0,001	0,240
337,100	-0,002	0,241
337,150	-0,002	0,240
337,200	-0,002	0,241
337,250	-0,002	0,240
337,300	-0,002	0,241
337,350	-0,002	0,239
337,400	-0,001	0,241
337,450	-0,001	0,240
337,500	-0,002	0,240
337,550	-0,002	0,240
337,600	-0,001	0,241
337,650	-0,002	0,240
337,700	-0,002	0,241
337,750	-0,001	0,240
337,800	-0,001	0,241
337,850	-0,002	0,240
337,900	-0,002	0,241
337,950	-0,001	0,240
338,000	-0,002	0,241
338,050	-0,001	0,240
338,100	-0,002	0,240
338,150	-0,002	0,240
338,200	-0,002	0,240
338,250	-0,002	0,239
338,300	-0,002	0,240
338,350	-0,002	0,240
338,400	-0,001	0,241
338,450	-0,002	0,240
