Zeit (s) Messreihe #4	Spannung, Ch A (V) Messreihe #4	Spannung, Ch B (V) Messreihe #4
0,000	-0,010	-0,003
0,050	-0,009	-0,002
0,100	-0,009	-0,003
0,150	-0,010	-0,002
0,200	-0,009	-0,003
0,250	-0,010	-0,002
0,300	-0,009	-0,003
0,350	-0,010	-0,002
0,400	-0,010	-0,003
0,450	-0,010	-0,002
0,500	-0,010	-0,003
0,550	-0,010	-0,002
0,600	-0,010	-0,003
0,650	-0,009	-0,002
0,700	-0,010	-0,003
0,750	-0,010	-0,002
0,800	-0,009	-0,002
0,850	-0,009	-0,002
0,900	-0,009	-0,003
0,950	-0,010	-0,002
1,000	-0,011	-0,002
1,050	-0,014	-0,002
1,100	-0,014	-0,003
1,150	-0,014	-0,002
1,200	-0,014	-0,003
1,250	-0,022	-0,002
1,300	-0,046	-0,003
1,350	-0,054	-0,001
1,400	-0,054	-0,002
1,450	-0,057	-0,002
1,500	-0,071	-0,002
1,550	-0,086	-0,001
1,600	-0,089	-0,002
1,650	-0,089	-0,001
1,700	-0,088	-0,002
1,750	-0,089	-9,520E-4
1,800	-0,089	-0,002
1,850	-0,089	-0,001
1,900	-0,088	-0,002
1,950	-0,089	-0,001
2,000	-0,089	-0,002
2,050	-0,089	-0,001
2,100	-0,089	-0,002
2,150	-0,089	-0,001
2,200	-0,089	-0,002
2,250	-0,091	-0,001
2,300	-0,093	-0,002
2,350	-0,093	-9,349E-4
2,400	-0,093	-0,002
2,450	-0,095	-8,641E-4
2,500	-0,105	-0,002
2,550	-0,111	-8,397E-4
2,600	-0,111	-0,002
2,650	-0,112	-9,850E-4
2,700	-0,111	-0,002
2,750	-0,111	-7,164E-4
2,800	-0,111	-0,001
2,850	-0,113	-8,251E-4
2,900	-0,117	-0,002
2,950	-0,123	-7,250E-4
3,000	-0,124	-0,002
3,050	-0,124	-8,116E-4
3,100	-0,124	-0,001
3,150	-0,124	-6,066E-4
3,200	-0,124	-0,001
3,250	-0,124	-7,079E-4
3,300	-0,125	-0,001
3,350	-0,125	-7,347E-4
3,400	-0,124	-0,001
3,450	-0,124	-5,516E-4
3,500	-0,124	-0,001
3,550	-0,125	-6,591E-4
3,600	-0,124	-0,001
3,650	-0,125	-5,199E-4
3,700	-0,125	-0,001
3,750	-0,127	-2,977E-4
3,800	-0,129	-0,001
3,850	-0,129	-5,480E-4
3,900	-0,128	-0,001
3,950	-0,129	-7,677E-4
4,000	-0,129	-0,001
4,050	-0,128	-1,976E-4
4,100	-0,129	-0,001
4,150	-0,129	-3,710E-4
4,200	-0,129	-0,001
4,250	-0,129	-2,440E-4
4,300	-0,129	-0,001
4,350	-0,136	-5,237E-5
4,400	-0,138	-0,001
4,450	-0,138	-4,259E-4
4,500	-0,138	-9,142E-4
4,550	-0,137	9,778E-5
4,600	-0,138	-8,544E-4
4,650	-0,138	-1,805E-4
4,700	-0,137	-6,481E-4
4,750	-0,138	-2,319E-6
4,800	-0,144	-5,834E-4
4,850	-0,151	1,503E-4
4,900	-0,151	-6,127E-4
4,950	-0,151	4,651E-5
5,000	-0,151	-4,381E-4
5,050	-0,152	-8,899E-5
5,100	-0,156	-4,320E-4
5,150	-0,168	2,260E-4
5,200	-0,170	-4,552E-4
5,250	-0,173	1,808E-4
5,300	-0,173	-2,806E-4
5,350	-0,173	2,650E-4
5,400	-0,173	-1,635E-4
5,450	-0,173	3,712E-4
5,500	-0,176	-5,309E-4
5,550	-0,178	3,065E-4
5,600	-0,177	-2,733E-4
5,650	-0,178	3,517E-4
5,700	-0,177	-3,368E-4
5,750	-0,179	4,445E-4
5,800	-0,191	-3,575E-4
5,850	-0,195	3,859E-4
5,900	-0,194	1,111E-5
5,950	-0,195	7,789E-4
6,000	-0,195	-1,146E-4
6,050	-0,195	5,421E-4
6,100	-0,198	1,198E-4
6,150	-0,218	6,654E-4
6,200	-0,236	8,667E-6
6,250	-0,239	7,130E-4
6,300	-0,239	1,234E-4
6,350	-0,239	9,840E-4
6,400	-0,239	2,125E-4
6,450	-0,239	8,961E-4
6,500	-0,239	3,492E-4
6,550	-0,239	9,865E-4
6,600	-0,239	9,412E-5
6,650	-0,239	0,001
6,700	-0,239	5,616E-4
6,750	-0,239	9,230E-4
6,800	-0,239	6,276E-4
6,850	-0,239	8,351E-4
6,900	-0,239	5,983E-4
6,950	-0,239	0,001
7,000	-0,239	5,507E-4
7,050	-0,239	0,001
7,100	-0,239	6,776E-4
7,150	-0,241	0,001
7,200	-0,247	7,692E-4
7,250	-0,248	0,001
7,300	-0,248	6,373E-4
7,350	-0,248	0,001
7,400	-0,248	7,350E-4
7,450	-0,247	0,002
7,500	-0,248	5,958E-4
7,550	-0,248	0,001
7,600	-0,253	8,400E-4
7,650	-0,265	0,001
7,700	-0,265	0,001
7,750	-0,266	0,001
7,800	-0,266	0,001
7,850	-0,266	0,001
7,900	-0,266	9,425E-4
7,950	-0,266	0,002
8,000	-0,266	0,001
8,050	-0,266	0,002
8,100	-0,266	0,001
8,150	-0,266	0,002
8,200	-0,268	0,001
8,250	-0,284	0,002
8,300	-0,307	0,001
8,350	-0,310	0,002
8,400	-0,310	0,001
8,450	-0,310	0,002
8,500	-0,310	0,001
8,550	-0,310	0,002
8,600	-0,309	0,002
8,650	-0,309	0,002
8,700	-0,310	0,002
8,750	-0,310	0,002
8,800	-0,310	0,001
8,850	-0,310	0,002
8,900	-0,310	0,002
8,950	-0,310	0,002
9,000	-0,309	0,002
9,050	-0,310	0,002
9,100	-0,310	0,002
9,150	-0,311	0,002
9,200	-0,320	0,002
9,250	-0,328	0,002
9,300	-0,327	0,002
9,350	-0,327	0,002
9,400	-0,327	0,002
9,450	-0,327	0,002
9,500	-0,329	0,002
9,550	-0,332	0,002
9,600	-0,332	0,002
9,650	-0,331	0,003
9,700	-0,332	0,002
9,750	-0,332	0,002
9,800	-0,331	0,002
9,850	-0,331	0,003
9,900	-0,331	0,002
9,950	-0,332	0,003
10,000	-0,334	0,002
10,050	-0,336	0,003
10,100	-0,336	0,002
10,150	-0,336	0,002
10,200	-0,336	0,002
10,250	-0,336	0,003
10,300	-0,344	0,002
10,350	-0,352	0,003
10,400	-0,353	0,003
10,450	-0,354	0,003
10,500	-0,354	0,003
10,550	-0,361	0,003
10,600	-0,362	0,003
10,650	-0,363	0,003
10,700	-0,362	0,003
10,750	-0,362	0,003
10,800	-0,362	0,003
10,850	-0,362	0,003
10,900	-0,362	0,003
10,950	-0,362	0,003
11,000	-0,362	0,003
11,050	-0,363	0,003
11,100	-0,362	0,003
11,150	-0,362	0,003
11,200	-0,362	0,003
11,250	-0,362	0,003
11,300	-0,365	0,003
11,350	-0,371	0,003
11,400	-0,371	0,003
11,450	-0,371	0,003
11,500	-0,371	0,003
11,550	-0,372	0,003
11,600	-0,382	0,003
11,650	-0,384	0,003
11,700	-0,384	0,003
11,750	-0,384	0,003
11,800	-0,388	0,003
11,850	-0,402	0,003
11,900	-0,407	0,003
11,950	-0,407	0,003
12,000	-0,407	0,003
12,050	-0,406	0,003
12,100	-0,407	0,003
12,150	-0,407	0,003
12,200	-0,406	0,003
12,250	-0,406	0,004
12,300	-0,406	0,004
12,350	-0,406	0,004
12,400	-0,406	0,003
12,450	-0,407	0,004
12,500	-0,412	0,003
12,550	-0,428	0,004
12,600	-0,429	0,003
12,650	-0,429	0,004
12,700	-0,428	0,004
12,750	-0,429	0,004
12,800	-0,439	0,004
12,850	-0,443	0,004
12,900	-0,443	0,004
12,950	-0,449	0,004
13,000	-0,451	0,004
13,050	-0,451	0,004
13,100	-0,451	0,004
13,150	-0,464	0,004
13,200	-0,476	0,004
13,250	-0,477	0,004
13,300	-0,477	0,004
13,350	-0,477	0,004
13,400	-0,477	0,005
13,450	-0,477	0,004
13,500	-0,477	0,004
13,550	-0,478	0,004
13,600	-0,477	0,004
13,650	-0,478	0,004
13,700	-0,478	0,004
13,750	-0,478	0,004
13,800	-0,490	0,004
13,850	-0,495	0,005
13,900	-0,495	0,005
13,950	-0,495	0,005
14,000	-0,495	0,005
14,050	-0,497	0,005
14,100	-0,501	0,004
14,150	-0,508	0,005
14,200	-0,513	0,005
14,250	-0,513	0,005
14,300	-0,513	0,005
14,350	-0,513	0,005
14,400	-0,513	0,005
14,450	-0,513	0,005
14,500	-0,516	0,005
14,550	-0,522	0,005
14,600	-0,524	0,005
14,650	-0,534	0,004
14,700	-0,544	0,005
14,750	-0,547	0,005
14,800	-0,546	0,005
14,850	-0,547	0,005
14,900	-0,548	0,005
14,950	-0,548	0,005
15,000	-0,548	0,005
15,050	-0,548	0,005
15,100	-0,548	0,005
15,150	-0,548	0,005
15,200	-0,548	0,005
15,250	-0,552	0,005
15,300	-0,565	0,005
15,350	-0,567	0,005
15,400	-0,567	0,005
15,450	-0,566	0,006
15,500	-0,567	0,005
15,550	-0,567	0,005
15,600	-0,567	0,005
15,650	-0,567	0,005
15,700	-0,567	0,005
15,750	-0,567	0,005
15,800	-0,567	0,006
15,850	-0,567	0,005
15,900	-0,567	0,005
15,950	-0,567	0,006
16,000	-0,572	0,006
16,050	-0,583	0,006
16,100	-0,588	0,006
16,150	-0,588	0,005
16,200	-0,588	0,006
16,250	-0,588	0,006
16,300	-0,588	0,006
16,350	-0,588	0,006
16,400	-0,588	0,006
16,450	-0,585	0,006
16,500	-0,585	0,006
16,550	-0,585	0,006
16,600	-0,593	0,006
16,650	-0,593	0,006
16,700	-0,593	0,006
16,750	-0,593	0,006
16,800	-0,593	0,006
16,850	-0,593	0,006
16,900	-0,603	0,006
16,950	-0,606	0,006
17,000	-0,606	0,006
17,050	-0,606	0,006
17,100	-0,606	0,006
17,150	-0,606	0,006
17,200	-0,606	0,006
17,250	-0,611	0,006
17,300	-0,619	0,006
17,350	-0,622	0,006
17,400	-0,623	0,006
17,450	-0,623	0,006
17,500	-0,623	0,007
17,550	-0,627	0,006
17,600	-0,627	0,007
17,650	-0,627	0,007
17,700	-0,632	0,006
17,750	-0,636	0,007
17,800	-0,637	0,006
17,850	-0,637	0,006
17,900	-0,636	0,007
17,950	-0,636	0,006
18,000	-0,637	0,007
18,050	-0,638	0,007
18,100	-0,641	0,007
18,150	-0,641	0,007
18,200	-0,641	0,007
18,250	-0,641	0,006
18,300	-0,642	0,007
18,350	-0,649	0,007
18,400	-0,653	0,007
18,450	-0,653	0,007
18,500	-0,655	0,007
18,550	-0,663	0,007
18,600	-0,662	0,007
18,650	-0,663	0,007
18,700	-0,663	0,007
18,750	-0,663	0,007
18,800	-0,667	0,007
18,850	-0,674	0,007
18,900	-0,677	0,007
18,950	-0,677	0,007
19,000	-0,677	0,008
19,050	-0,681	0,007
19,100	-0,686	0,007
19,150	-0,688	0,007
19,200	-0,690	0,007
19,250	-0,693	0,007
19,300	-0,699	0,007
19,350	-0,699	0,007
19,400	-0,700	0,007
19,450	-0,700	0,007
19,500	-0,700	0,007
19,550	-0,700	0,007
19,600	-0,704	0,008
19,650	-0,714	0,008
19,700	-0,717	0,008
19,750	-0,717	0,007
19,800	-0,716	0,008
19,850	-0,717	0,007
19,900	-0,717	0,008
19,950	-0,716	0,007
20,000	-0,717	0,008
20,050	-0,716	0,007
20,100	-0,727	0,008
20,150	-0,735	0,007
20,200	-0,734	0,008
20,250	-0,735	0,007
20,300	-0,735	0,008
20,350	-0,734	0,008
20,400	-0,738	0,008
20,450	-0,739	0,008
20,500	-0,739	0,009
20,550	-0,739	0,008
20,600	-0,739	0,008
20,650	-0,741	0,008
20,700	-0,750	0,008
20,750	-0,753	0,008
20,800	-0,752	0,008
20,850	-0,757	0,008
20,900	-0,764	0,008
20,950	-0,766	0,008
21,000	-0,771	0,008
21,050	-0,775	0,008
21,100	-0,775	0,008
21,150	-0,775	0,008
21,200	-0,774	0,009
21,250	-0,775	0,008
21,300	-0,775	0,009
21,350	-0,784	0,008
21,400	-0,788	0,009
21,450	-0,788	0,008
21,500	-0,788	0,009
21,550	-0,790	0,009
21,600	-0,793	0,008
21,650	-0,795	0,008
21,700	-0,797	0,009
21,750	-0,797	0,008
21,800	-0,799	0,009
21,850	-0,810	0,008
21,900	-0,814	0,009
21,950	-0,815	0,008
22,000	-0,824	0,009
22,050	-0,833	0,009
22,100	-0,839	0,009
22,150	-0,845	0,009
22,200	-0,847	0,009
22,250	-0,848	0,009
22,300	-0,850	0,009
22,350	-0,850	0,009
22,400	-0,851	0,009
22,450	-0,856	0,009
22,500	-0,859	0,009
22,550	-0,860	0,009
22,600	-0,860	0,009
22,650	-0,862	0,009
22,700	-0,863	0,009
22,750	-0,864	0,009
22,800	-0,868	0,009
22,850	-0,869	0,009
22,900	-0,867	0,010
22,950	-0,868	0,009
23,000	-0,870	0,010
23,050	-0,872	0,009
23,100	-0,875	0,010
23,150	-0,883	0,009
23,200	-0,886	0,010
23,250	-0,886	0,009
23,300	-0,886	0,010
23,350	-0,890	0,009
23,400	-0,891	0,010
23,450	-0,895	0,009
23,500	-0,895	0,010
23,550	-0,895	0,009
23,600	-0,898	0,010
23,650	-0,900	0,009
23,700	-0,900	0,010
23,750	-0,901	0,009
23,800	-0,908	0,010
23,850	-0,908	0,009
23,900	-0,908	0,010
23,950	-0,908	0,009
24,000	-0,909	0,010
24,050	-0,909	0,009
24,100	-0,909	0,010
24,150	-0,908	0,010
24,200	-0,914	0,010
24,250	-0,915	0,009
24,300	-0,914	0,010
24,350	-0,920	0,009
24,400	-0,922	0,010
24,450	-0,922	0,009
24,500	-0,922	0,010
24,550	-0,930	0,010
24,600	-0,935	0,010
24,650	-0,939	0,010
24,700	-0,939	0,010
24,750	-0,939	0,010
24,800	-0,939	0,010
24,850	-0,939	0,010
24,900	-0,946	0,011
24,950	-0,950	0,010
25,000	-0,952	0,010
25,050	-0,952	0,010
25,100	-0,952	0,011
25,150	-0,958	0,010
25,200	-0,966	0,011
25,250	-0,970	0,010
25,300	-0,970	0,011
25,350	-0,970	0,010
25,400	-0,970	0,011
25,450	-0,970	0,010
25,500	-0,970	0,011
25,550	-0,970	0,010
25,600	-0,970	0,011
25,650	-0,970	0,010
25,700	-0,974	0,011
25,750	-0,974	0,010
25,800	-0,974	0,011
25,850	-0,979	0,010
25,900	-0,987	0,011
25,950	-0,988	0,010
26,000	-0,989	0,011
26,050	-0,996	0,010
26,100	-1,011	0,011
26,150	-1,014	0,010
26,200	-1,020	0,011
26,250	-1,022	0,010
26,300	-1,022	0,011
26,350	-1,024	0,010
26,400	-1,033	0,011
26,450	-1,041	0,011
26,500	-1,041	0,011
26,550	-1,044	0,011
26,600	-1,045	0,012
26,650	-1,045	0,011
26,700	-1,046	0,012
26,750	-1,055	0,011
26,800	-1,059	0,011
26,850	-1,059	0,011
26,900	-1,059	0,012
26,950	-1,068	0,011
27,000	-1,074	0,012
27,050	-1,074	0,011
27,100	-1,081	0,012
27,150	-1,094	0,011
27,200	-1,099	0,012
27,250	-1,099	0,011
27,300	-1,099	0,012
27,350	-1,098	0,011
27,400	-1,107	0,012
27,450	-1,112	0,011
27,500	-1,112	0,012
27,550	-1,112	0,011
27,600	-1,112	0,012
27,650	-1,112	0,011
27,700	-1,112	0,012
27,750	-1,112	0,011
27,800	-1,112	0,012
27,850	-1,112	0,011
27,900	-1,113	0,012
27,950	-1,112	0,011
28,000	-1,112	0,012
28,050	-1,112	0,011
28,100	-1,112	0,012
28,150	-1,112	0,012
28,200	-1,113	0,012
28,250	-1,119	0,011
28,300	-1,126	0,012
28,350	-1,126	0,012
28,400	-1,128	0,013
28,450	-1,141	0,012
28,500	-1,143	0,013
28,550	-1,146	0,012
28,600	-1,158	0,013
28,650	-1,163	0,012
28,700	-1,164	0,013
28,750	-1,165	0,012
28,800	-1,176	0,013
28,850	-1,190	0,012
28,900	-1,192	0,013
28,950	-1,192	0,012
29,000	-1,192	0,013
29,050	-1,207	0,012
29,100	-1,215	0,013
29,150	-1,224	0,012
29,200	-1,236	0,013
29,250	-1,237	0,012
29,300	-1,238	0,013
29,350	-1,256	0,012
29,400	-1,260	0,013
29,450	-1,260	0,012
29,500	-1,261	0,013
29,550	-1,262	0,012
29,600	-1,282	0,014
29,650	-1,285	0,012
29,700	-1,296	0,014
29,750	-1,316	0,013
29,800	-1,318	0,014
29,850	-1,318	0,013
29,900	-1,318	0,014
29,950	-1,318	0,013
30,000	-1,319	0,014
30,050	-1,322	0,013
30,100	-1,337	0,014
30,150	-1,339	0,013
30,200	-1,339	0,014
30,250	-1,339	0,013
30,300	-1,346	0,014
30,350	-1,377	0,013
30,400	-1,386	0,014
30,450	-1,387	0,013
30,500	-1,387	0,014
30,550	-1,387	0,013
30,600	-1,386	0,014
30,650	-1,387	0,013
30,700	-1,387	0,014
30,750	-1,393	0,013
30,800	-1,410	0,014
30,850	-1,411	0,013
30,900	-1,412	0,014
30,950	-1,414	0,013
31,000	-1,425	0,015
31,050	-1,432	0,013
31,100	-1,434	0,014
31,150	-1,450	0,014
31,200	-1,455	0,014
31,250	-1,460	0,013
31,300	-1,468	0,014
31,350	-1,468	0,014
31,400	-1,468	0,015
31,450	-1,481	0,014
31,500	-1,497	0,015
31,550	-1,499	0,014
31,600	-1,501	0,015
31,650	-1,509	0,014
31,700	-1,523	0,015
31,750	-1,536	0,014
31,800	-1,543	0,015
31,850	-1,544	0,014
31,900	-1,544	0,015
31,950	-1,544	0,014
32,000	-1,544	0,015
32,050	-1,544	0,014
32,100	-1,552	0,015
32,150	-1,557	0,014
32,200	-1,557	0,015
32,250	-1,557	0,014
32,300	-1,561	0,015
32,350	-1,578	0,014
32,400	-1,583	0,015
32,450	-1,583	0,014
32,500	-1,583	0,015
32,550	-1,587	0,015
32,600	-1,592	0,016
32,650	-1,597	0,014
32,700	-1,597	0,015
32,750	-1,602	0,014
32,800	-1,606	0,015
32,850	-1,606	0,015
32,900	-1,613	0,015
32,950	-1,618	0,015
33,000	-1,618	0,016
33,050	-1,628	0,015
33,100	-1,636	0,016
33,150	-1,637	0,015
33,200	-1,641	0,016
33,250	-1,642	0,015
33,300	-1,642	0,016
33,350	-1,647	0,015
33,400	-1,649	0,016
33,450	-1,657	0,015
33,500	-1,659	0,016
33,550	-1,663	0,015
33,600	-1,666	0,016
33,650	-1,667	0,015
33,700	-1,669	0,016
33,750	-1,672	0,015
33,800	-1,672	0,016
33,850	-1,672	0,015
33,900	-1,673	0,016
33,950	-1,677	0,015
34,000	-1,677	0,016
34,050	-1,679	0,015
34,100	-1,688	0,016
34,150	-1,690	0,015
34,200	-1,691	0,016
34,250	-1,698	0,015
34,300	-1,706	0,017
34,350	-1,707	0,015
34,400	-1,707	0,017
34,450	-1,707	0,015
34,500	-1,711	0,017
34,550	-1,717	0,015
34,600	-1,717	0,017
34,650	-1,717	0,015
34,700	-1,719	0,017
34,750	-1,726	0,016
34,800	-1,727	0,017
34,850	-1,729	0,016
34,900	-1,730	0,017
34,950	-1,730	0,016
35,000	-1,735	0,017
35,050	-1,739	0,016
35,100	-1,739	0,017
35,150	-1,739	0,016
35,200	-1,741	0,017
35,250	-1,749	0,016
35,300	-1,753	0,017
35,350	-1,754	0,016
35,400	-1,760	0,017
35,450	-1,762	0,016
35,500	-1,762	0,017
35,550	-1,766	0,016
35,600	-1,771	0,017
35,650	-1,771	0,016
35,700	-1,773	0,017
35,750	-1,774	0,016
35,800	-1,774	0,017
35,850	-1,774	0,017
35,900	-1,775	0,017
35,950	-1,774	0,016
36,000	-1,775	0,018
36,050	-1,776	0,016
36,100	-1,783	0,017
36,150	-1,785	0,016
36,200	-1,786	0,017
36,250	-1,786	0,017
36,300	-1,789	0,018
36,350	-1,793	0,016
36,400	-1,797	0,018
36,450	-1,797	0,017
36,500	-1,797	0,018
36,550	-1,797	0,017
36,600	-1,798	0,018
36,650	-1,800	0,017
36,700	-1,804	0,018
36,750	-1,810	0,017
36,800	-1,810	0,018
36,850	-1,810	0,017
36,900	-1,815	0,018
36,950	-1,819	0,017
37,000	-1,820	0,018
37,050	-1,823	0,017
37,100	-1,823	0,018
37,150	-1,824	0,017
37,200	-1,824	0,018
37,250	-1,824	0,017
37,300	-1,826	0,018
37,350	-1,832	0,017
37,400	-1,833	0,018
37,450	-1,835	0,017
37,500	-1,838	0,018
37,550	-1,847	0,017
37,600	-1,853	0,018
37,650	-1,855	0,017
37,700	-1,855	0,018
37,750	-1,855	0,017
37,800	-1,855	0,018
37,850	-1,855	0,017
37,900	-1,855	0,018
37,950	-1,855	0,017
38,000	-1,858	0,018
38,050	-1,860	0,017
38,100	-1,864	0,019
38,150	-1,867	0,017
38,200	-1,871	0,018
38,250	-1,872	0,017
38,300	-1,873	0,019
38,350	-1,876	0,018
38,400	-1,876	0,019
38,450	-1,878	0,018
38,500	-1,881	0,019
38,550	-1,880	0,018
38,600	-1,881	0,019
38,650	-1,884	0,018
38,700	-1,885	0,019
38,750	-1,885	0,018
38,800	-1,886	0,019
38,850	-1,885	0,018
38,900	-1,886	0,018
38,950	-1,885	0,018
39,000	-1,887	0,019
39,050	-1,889	0,018
39,100	-1,889	0,019
39,150	-1,891	0,018
39,200	-1,897	0,019
39,250	-1,906	0,018
39,300	-1,912	0,019
39,350	-1,917	0,018
39,400	-1,917	0,019
39,450	-1,921	0,018
39,500	-1,926	0,019
39,550	-1,933	0,018
39,600	-1,934	0,019
39,650	-1,943	0,018
39,700	-1,945	0,019
39,750	-1,946	0,018
39,800	-1,948	0,020
39,850	-1,958	0,019
39,900	-1,964	0,020
39,950	-1,966	0,018
40,000	-1,969	0,019
40,050	-1,970	0,019
40,100	-1,973	0,020
40,150	-1,974	0,018
40,200	-1,975	0,020
40,250	-1,974	0,019
40,300	-1,975	0,020
40,350	-1,977	0,019
40,400	-1,981	0,020
40,450	-1,988	0,019
40,500	-1,988	0,020
40,550	-1,989	0,019
40,600	-1,995	0,020
40,650	-1,997	0,018
40,700	-1,999	0,020
40,750	-2,009	0,019
40,800	-2,011	0,020
40,850	-2,011	0,019
40,900	-2,013	0,020
40,950	-2,018	0,019
41,000	-2,019	0,020
41,050	-2,019	0,019
41,100	-2,019	0,020
41,150	-2,019	0,019
41,200	-2,019	0,020
41,250	-2,020	0,019
41,300	-2,020	0,020
41,350	-2,019	0,019
41,400	-2,021	0,020
41,450	-2,044	0,019
41,500	-2,067	0,021
41,550	-2,069	0,020
41,600	-2,073	0,020
41,650	-2,073	0,020
41,700	-2,081	0,020
41,750	-2,082	0,020
41,800	-2,091	0,020
41,850	-2,101	0,019
41,900	-2,102	0,021
41,950	-2,109	0,020
42,000	-2,114	0,021
42,050	-2,118	0,020
42,100	-2,122	0,021
42,150	-2,123	0,020
42,200	-2,128	0,021
42,250	-2,135	0,020
42,300	-2,136	0,021
42,350	-2,136	0,020
42,400	-2,140	0,021
42,450	-2,144	0,020
42,500	-2,148	0,021
42,550	-2,153	0,020
42,600	-2,159	0,021
42,650	-2,171	0,020
42,700	-2,178	0,021
42,750	-2,180	0,020
42,800	-2,186	0,021
42,850	-2,193	0,020
42,900	-2,193	0,021
42,950	-2,193	0,020
43,000	-2,197	0,021
43,050	-2,205	0,020
43,100	-2,206	0,021
43,150	-2,209	0,020
43,200	-2,212	0,021
43,250	-2,217	0,020
43,300	-2,219	0,021
43,350	-2,220	0,020
43,400	-2,219	0,022
43,450	-2,219	0,021
43,500	-2,220	0,021
43,550	-2,220	0,021
43,600	-2,221	0,022
43,650	-2,250	0,021
43,700	-2,277	0,022
43,750	-2,278	0,021
43,800	-2,278	0,022
43,850	-2,277	0,021
43,900	-2,283	0,022
43,950	-2,291	0,021
44,000	-2,294	0,022
44,050	-2,302	0,021
44,100	-2,312	0,022
44,150	-2,314	0,021
44,200	-2,331	0,022
44,250	-2,339	0,021
44,300	-2,345	0,022
44,350	-2,349	0,021
44,400	-2,350	0,022
44,450	-2,364	0,021
44,500	-2,367	0,023
44,550	-2,371	0,021
44,600	-2,382	0,023
44,650	-2,391	0,022
44,700	-2,401	0,023
44,750	-2,406	0,022
44,800	-2,412	0,022
44,850	-2,427	0,022
44,900	-2,434	0,023
44,950	-2,438	0,022
45,000	-2,450	0,023
45,050	-2,456	0,022
45,100	-2,468	0,023
45,150	-2,470	0,022
45,200	-2,479	0,023
45,250	-2,488	0,022
45,300	-2,501	0,023
45,350	-2,509	0,022
45,400	-2,510	0,023
45,450	-2,524	0,022
45,500	-2,533	0,024
45,550	-2,536	0,022
45,600	-2,536	0,023
45,650	-2,542	0,022
45,700	-2,549	0,024
45,750	-2,549	0,022
45,800	-2,560	0,023
45,850	-2,577	0,023
45,900	-2,580	0,024
45,950	-2,584	0,022
46,000	-2,590	0,024
46,050	-2,590	0,022
46,100	-2,590	0,024
46,150	-2,590	0,023
46,200	-2,590	0,024
46,250	-2,598	0,023
46,300	-2,602	0,024
46,350	-2,603	0,023
46,400	-2,606	0,024
46,450	-2,615	0,023
46,500	-2,616	0,024
46,550	-2,616	0,023
46,600	-2,624	0,024
46,650	-2,625	0,023
46,700	-2,628	0,024
46,750	-2,634	0,023
46,800	-2,634	0,024
46,850	-2,637	0,023
46,900	-2,638	0,024
46,950	-2,639	0,023
47,000	-2,638	0,024
47,050	-2,642	0,023
47,100	-2,652	0,024
47,150	-2,652	0,023
47,200	-2,652	0,024
47,250	-2,657	0,023
47,300	-2,661	0,024
47,350	-2,668	0,024
47,400	-2,694	0,024
47,450	-2,701	0,024
47,500	-2,704	0,025
47,550	-2,707	0,023
47,600	-2,709	0,025
47,650	-2,709	0,024
47,700	-2,706	0,025
47,750	-2,706	0,023
47,800	-2,708	0,024
47,850	-2,709	0,024
47,900	-2,710	0,024
47,950	-2,710	0,024
48,000	-2,710	0,025
48,050	-2,710	0,024
48,100	-2,710	0,025
48,150	-2,709	0,024
48,200	-2,711	0,025
48,250	-2,724	0,024
48,300	-2,727	0,025
48,350	-2,727	0,024
48,400	-2,727	0,025
48,450	-2,731	0,024
48,500	-2,778	0,025
48,550	-2,828	0,024
48,600	-2,842	0,025
48,650	-2,843	0,024
48,700	-2,843	0,025
48,750	-2,842	0,024
48,800	-2,843	0,025
48,850	-2,853	0,024
48,900	-2,860	0,025
48,950	-2,860	0,024
49,000	-2,865	0,026
49,050	-2,870	0,025
49,100	-2,878	0,025
49,150	-2,885	0,025
49,200	-2,892	0,026
49,250	-2,900	0,025
49,300	-2,911	0,026
49,350	-2,922	0,025
49,400	-2,923	0,026
49,450	-2,924	0,025
49,500	-2,923	0,026
49,550	-2,923	0,025
49,600	-2,923	0,026
49,650	-2,923	0,025
49,700	-2,923	0,026
49,750	-2,923	0,025
49,800	-2,924	0,026
49,850	-2,934	0,025
49,900	-2,949	0,026
49,950	-2,984	0,026
50,000	-3,007	0,027
50,050	-3,009	0,026
50,100	-3,009	0,026
50,150	-3,015	0,026
50,200	-3,025	0,026
50,250	-3,028	0,026
50,300	-3,045	0,027
50,350	-3,048	0,026
50,400	-3,053	0,027
50,450	-3,054	0,026
50,500	-3,056	0,027
50,550	-3,065	0,026
50,600	-3,070	0,027
50,650	-3,071	0,026
50,700	-3,081	0,027
50,750	-3,087	0,026
50,800	-3,087	0,027
50,850	-3,097	0,026
50,900	-3,104	0,027
50,950	-3,105	0,026
51,000	-3,105	0,027
51,050	-3,113	0,026
51,100	-3,114	0,027
51,150	-3,114	0,026
51,200	-3,114	0,027
51,250	-3,114	0,026
51,300	-3,114	0,027
51,350	-3,114	0,026
51,400	-3,114	0,027
51,450	-3,114	0,026
51,500	-3,114	0,027
51,550	-3,114	0,027
51,600	-3,114	0,027
51,650	-3,114	0,027
51,700	-3,114	0,028
51,750	-3,116	0,027
51,800	-3,121	0,027
51,850	-3,128	0,027
51,900	-3,159	0,028
51,950	-3,197	0,027
52,000	-3,218	0,028
52,050	-3,220	0,027
52,100	-3,219	0,028
52,150	-3,219	0,027
52,200	-3,221	0,028
52,250	-3,236	0,027
52,300	-3,238	0,028
52,350	-3,239	0,027
52,400	-3,247	0,028
52,450	-3,251	0,027
52,500	-3,255	0,028
52,550	-3,263	0,027
52,600	-3,282	0,028
52,650	-3,305	0,027
52,700	-3,318	0,028
52,750	-3,322	0,027
52,800	-3,331	0,028
52,850	-3,340	0,028
52,900	-3,342	0,029
52,950	-3,352	0,028
53,000	-3,357	0,029
53,050	-3,366	0,028
53,100	-3,368	0,029
53,150	-3,376	0,028
53,200	-3,385	0,029
53,250	-3,386	0,028
53,300	-3,394	0,029
53,350	-3,402	0,028
53,400	-3,412	0,029
53,450	-3,431	0,028
53,500	-3,442	0,029
53,550	-3,442	0,028
53,600	-3,442	0,029
53,650	-3,445	0,028
53,700	-3,456	0,030
53,750	-3,460	0,028
53,800	-3,470	0,029
53,850	-3,474	0,028
53,900	-3,474	0,029
53,950	-3,475	0,028
54,000	-3,480	0,029
54,050	-3,484	0,028
54,100	-3,487	0,029
54,150	-3,491	0,028
54,200	-3,497	0,030
54,250	-3,505	0,028
54,300	-3,505	0,030
54,350	-3,508	0,029
54,400	-3,511	0,030
54,450	-3,514	0,028
54,500	-3,515	0,030
54,550	-3,525	0,029
54,600	-3,540	0,029
54,650	-3,545	0,029
54,700	-3,547	0,030
54,750	-3,556	0,029
54,800	-3,560	0,030
54,850	-3,574	0,029
54,900	-3,583	0,030
54,950	-3,586	0,029
55,000	-3,593	0,030
55,050	-3,601	0,029
55,100	-3,608	0,030
55,150	-3,612	0,029
55,200	-3,614	0,030
55,250	-3,616	0,029
55,300	-3,617	0,030
55,350	-3,620	0,029
55,400	-3,623	0,030
55,450	-3,625	0,029
55,500	-3,625	0,030
55,550	-3,624	0,029
55,600	-3,624	0,030
55,650	-3,625	0,029
55,700	-3,624	0,031
55,750	-3,625	0,029
55,800	-3,625	0,030
55,850	-3,625	0,029
55,900	-3,625	0,030
55,950	-3,625	0,029
56,000	-3,630	0,031
56,050	-3,629	0,030
56,100	-3,629	0,030
56,150	-3,631	0,030
56,200	-3,646	0,031
56,250	-3,657	0,030
56,300	-3,675	0,031
56,350	-3,687	0,030
56,400	-3,691	0,030
56,450	-3,703	0,030
56,500	-3,705	0,031
56,550	-3,709	0,030
56,600	-3,717	0,031
56,650	-3,728	0,030
56,700	-3,739	0,031
56,750	-3,745	0,030
56,800	-3,749	0,031
56,850	-3,749	0,030
56,900	-3,753	0,031
56,950	-3,754	0,030
57,000	-3,762	0,031
57,050	-3,775	0,030
57,100	-3,784	0,031
57,150	-3,790	0,031
57,200	-3,795	0,032
57,250	-3,805	0,031
57,300	-3,812	0,031
57,350	-3,823	0,031
57,400	-3,832	0,032
57,450	-3,837	0,031
57,500	-3,848	0,032
57,550	-3,856	0,031
57,600	-3,861	0,032
57,650	-3,861	0,031
57,700	-3,861	0,032
57,750	-3,861	0,031
57,800	-3,861	0,031
57,850	-3,861	0,031
57,900	-3,875	0,032
57,950	-3,905	0,031
58,000	-3,941	0,032
58,050	-3,954	0,031
58,100	-3,952	0,032
58,150	-3,952	0,031
58,200	-3,961	0,032
58,250	-3,967	0,031
58,300	-3,979	0,032
58,350	-3,987	0,032
58,400	-4,002	0,032
58,450	-4,019	0,031
58,500	-4,027	0,032
58,550	-4,037	0,031
58,600	-4,046	0,032
58,650	-4,053	0,032
58,700	-4,062	0,032
58,750	-4,066	0,032
58,800	-4,071	0,032
58,850	-4,077	0,032
58,900	-4,085	0,032
58,950	-4,087	0,032
59,000	-4,094	0,033
59,050	-4,102	0,032
59,100	-4,115	0,033
59,150	-4,131	0,032
59,200	-4,139	0,033
59,250	-4,150	0,032
59,300	-4,166	0,033
59,350	-4,168	0,032
59,400	-4,170	0,033
59,450	-4,172	0,032
59,500	-4,173	0,033
59,550	-4,176	0,032
59,600	-4,177	0,033
59,650	-4,177	0,032
59,700	-4,177	0,033
59,750	-4,177	0,032
59,800	-4,176	0,033
59,850	-4,176	0,033
59,900	-4,177	0,033
59,950	-4,177	0,033
60,000	-4,179	0,033
60,050	-4,189	0,032
60,100	-4,194	0,033
60,150	-4,194	0,033
60,200	-4,195	0,033
60,250	-4,195	0,033
60,300	-4,203	0,033
60,350	-4,210	0,033
60,400	-4,224	0,034
60,450	-4,239	0,033
60,500	-4,239	0,034
60,550	-4,252	0,033
60,600	-4,260	0,034
60,650	-4,266	0,033
60,700	-4,269	0,034
60,750	-4,275	0,033
60,800	-4,279	0,034
60,850	-4,290	0,033
60,900	-4,293	0,034
60,950	-4,296	0,033
61,000	-4,308	0,034
61,050	-4,317	0,033
61,100	-4,328	0,034
61,150	-4,338	0,033
61,200	-4,342	0,034
61,250	-4,352	0,033
61,300	-4,362	0,034
61,350	-4,363	0,034
61,400	-4,365	0,034
61,450	-4,372	0,034
61,500	-4,372	0,034
61,550	-4,374	0,034
61,600	-4,382	0,034
61,650	-4,385	0,034
61,700	-4,390	0,034
61,750	-4,393	0,034
61,800	-4,394	0,034
61,850	-4,394	0,034
61,900	-4,394	0,034
61,950	-4,394	0,034
62,000	-4,394	0,034
62,050	-4,394	0,034
62,100	-4,404	0,034
62,150	-4,416	0,034
62,200	-4,432	0,035
62,250	-4,435	0,034
62,300	-4,434	0,035
62,350	-4,435	0,034
62,400	-4,443	0,035
62,450	-4,448	0,034
62,500	-4,450	0,035
62,550	-4,465	0,034
62,600	-4,466	0,035
62,650	-4,467	0,034
62,700	-4,482	0,035
62,750	-4,487	0,034
62,800	-4,490	0,035
62,850	-4,499	0,034
62,900	-4,501	0,035
62,950	-4,506	0,035
63,000	-4,520	0,035
63,050	-4,526	0,035
63,100	-4,532	0,035
63,150	-4,545	0,035
63,200	-4,550	0,035
63,250	-4,552	0,035
63,300	-4,563	0,035
63,350	-4,572	0,035
63,400	-4,574	0,035
63,450	-4,578	0,035
63,500	-4,583	0,036
63,550	-4,587	0,035
63,600	-4,597	0,036
63,650	-4,603	0,035
63,700	-4,603	0,036
63,750	-4,612	0,035
63,800	-4,633	0,036
63,850	-4,652	0,035
63,900	-4,657	0,036
63,950	-4,657	0,035
64,000	-4,658	0,035
64,050	-4,661	0,035
64,100	-4,662	0,036
64,150	-4,663	0,035
64,200	-4,663	0,036
64,250	-4,672	0,035
64,300	-4,680	0,036
64,350	-4,687	0,036
64,400	-4,695	0,036
64,450	-4,700	0,036
64,500	-4,708	0,036
64,550	-4,714	0,036
64,600	-4,716	0,036
64,650	-4,723	0,036
64,700	-4,726	0,036
64,750	-4,737	0,036
64,800	-4,745	0,037
64,850	-4,752	0,036
64,900	-4,760	0,037
64,950	-4,768	0,036
65,000	-4,778	0,037
65,050	-4,781	0,036
65,100	-4,782	0,036
65,150	-4,790	0,036
65,200	-4,795	0,037
65,250	-4,795	0,037
65,300	-4,800	0,037
65,350	-4,803	0,036
65,400	-4,809	0,037
65,450	-4,809	0,037
65,500	-4,809	0,037
65,550	-4,812	0,037
65,600	-4,813	0,037
65,650	-4,813	0,036
65,700	-4,813	0,037
65,750	-4,813	0,037
65,800	-4,813	0,037
65,850	-4,813	0,036
65,900	-4,813	0,037
65,950	-4,813	0,037
66,000	-4,819	0,037
66,050	-4,838	0,037
66,100	-4,860	0,037
66,150	-4,877	0,037
66,200	-4,888	0,037
66,250	-4,891	0,037
66,300	-4,900	0,037
66,350	-4,913	0,037
66,400	-4,918	0,038
66,450	-4,926	0,037
66,500	-4,931	0,038
66,550	-4,933	0,037
66,600	-4,933	0,038
66,650	-4,936	0,037
66,700	-4,939	0,037
66,750	-4,940	0,038
66,800	-4,955	0,038
66,850	-4,988	0,038
66,900	-5,010	0,038
66,950	-5,016	0,038
67,000	-5,018	0,038
67,050	-5,019	0,038
67,100	-5,033	0,038
67,150	-5,040	0,038
67,200	-5,050	0,038
67,250	-5,067	0,038
67,300	-5,070	0,038
67,350	-5,072	0,038
67,400	-5,080	0,038
67,450	-5,091	0,038
67,500	-5,092	0,039
67,550	-5,091	0,039
67,600	-5,091	0,039
67,650	-5,091	0,038
67,700	-5,092	0,038
67,750	-5,092	0,038
67,800	-5,095	0,039
67,850	-5,106	0,038
67,900	-5,132	0,039
67,950	-5,171	0,039
68,000	-5,190	0,039
68,050	-5,200	0,039
68,100	-5,215	0,039
68,150	-5,230	0,039
68,200	-5,242	0,039
68,250	-5,245	0,039
68,300	-5,259	0,039
68,350	-5,274	0,039
68,400	-5,295	0,040
68,450	-5,315	0,039
68,500	-5,317	0,039
68,550	-5,317	0,039
68,600	-5,322	0,039
68,650	-5,342	0,039
68,700	-5,353	0,040
68,750	-5,353	0,039
68,800	-5,355	0,040
68,850	-5,364	0,040
68,900	-5,374	0,040
68,950	-5,378	0,040
69,000	-5,385	0,040
69,050	-5,395	0,040
69,100	-5,402	0,040
69,150	-5,407	0,040
69,200	-5,412	0,040
69,250	-5,430	0,040
69,300	-5,447	0,040
69,350	-5,460	0,040
69,400	-5,472	0,040
69,450	-5,482	0,040
69,500	-5,498	0,041
69,550	-5,501	0,040
69,600	-5,502	0,040
69,650	-5,509	0,040
69,700	-5,514	0,041
69,750	-5,514	0,040
69,800	-5,515	0,041
69,850	-5,515	0,040
69,900	-5,515	0,041
69,950	-5,515	0,041
70,000	-5,515	0,041
70,050	-5,518	0,040
70,100	-5,521	0,041
70,150	-5,528	0,040
70,200	-5,544	0,041
70,250	-5,582	0,041
70,300	-5,610	0,041
70,350	-5,624	0,041
70,400	-5,629	0,041
70,450	-5,634	0,041
70,500	-5,638	0,041
70,550	-5,638	0,041
70,600	-5,642	0,041
70,650	-5,661	0,041
70,700	-5,667	0,041
70,750	-5,671	0,041
70,800	-5,686	0,042
70,850	-5,688	0,041
70,900	-5,702	0,042
70,950	-5,706	0,041
71,000	-5,705	0,042
71,050	-5,706	0,041
71,100	-5,706	0,042
71,150	-5,706	0,041
71,200	-5,713	0,042
71,250	-5,742	0,042
71,300	-5,768	0,042
71,350	-5,797	0,042
71,400	-5,829	0,042
71,450	-5,839	0,042
71,500	-5,844	0,043
71,550	-5,864	0,042
71,600	-5,878	0,042
71,650	-5,895	0,042
71,700	-5,905	0,043
71,750	-5,935	0,042
71,800	-5,966	0,043
71,850	-5,973	0,042
71,900	-5,987	0,043
71,950	-5,997	0,043
72,000	-6,010	0,043
72,050	-6,025	0,043
72,100	-6,054	0,043
72,150	-6,073	0,043
72,200	-6,082	0,043
72,250	-6,099	0,043
72,300	-6,116	0,043
72,350	-6,123	0,043
72,400	-6,135	0,043
72,450	-6,161	0,043
72,500	-6,177	0,044
72,550	-6,197	0,043
72,600	-6,205	0,044
72,650	-6,205	0,044
72,700	-6,206	0,044
72,750	-6,206	0,043
72,800	-6,206	0,044
72,850	-6,207	0,043
72,900	-6,207	0,044
72,950	-6,207	0,043
73,000	-6,207	0,044
73,050	-6,211	0,044
73,100	-6,234	0,044
73,150	-6,240	0,044
73,200	-6,259	0,044
73,250	-6,281	0,044
73,300	-6,288	0,044
73,350	-6,314	0,044
73,400	-6,317	0,045
73,450	-6,320	0,044
73,500	-6,343	0,045
73,550	-6,381	0,044
73,600	-6,390	0,045
73,650	-6,389	0,044
73,700	-6,390	0,045
73,750	-6,389	0,045
73,800	-6,389	0,045
73,850	-6,390	0,044
73,900	-6,395	0,045
73,950	-6,429	0,044
74,000	-6,486	0,045
74,050	-6,495	0,045
74,100	-6,500	0,045
74,150	-6,510	0,045
74,200	-6,513	0,045
74,250	-6,515	0,045
74,300	-6,525	0,045
74,350	-6,541	0,045
74,400	-6,566	0,045
74,450	-6,591	0,045
74,500	-6,606	0,045
74,550	-6,616	0,045
74,600	-6,628	0,046
74,650	-6,636	0,045
74,700	-6,637	0,046
74,750	-6,641	0,046
74,800	-6,649	0,046
74,850	-6,649	0,046
74,900	-6,650	0,046
74,950	-6,649	0,046
75,000	-6,650	0,046
75,050	-6,650	0,046
75,100	-6,651	0,046
75,150	-6,652	0,046
75,200	-6,653	0,046
75,250	-6,652	0,046
75,300	-6,653	0,046
75,350	-6,652	0,046
75,400	-6,653	0,046
75,450	-6,652	0,046
75,500	-6,653	0,046
75,550	-6,652	0,046
75,600	-6,652	0,046
75,650	-6,652	0,046
75,700	-6,653	0,046
75,750	-6,652	0,046
75,800	-6,652	0,047
75,850	-6,652	0,046
75,900	-6,653	0,046
75,950	-6,652	0,046
76,000	-6,653	0,046
76,050	-6,652	0,046
76,100	-6,653	0,046
76,150	-6,652	0,046
76,200	-6,653	0,046
76,250	-6,652	0,046
76,300	-6,653	0,046
76,350	-6,652	0,046
76,400	-6,653	0,046
76,450	-6,652	0,046
76,500	-6,653	0,047
76,550	-6,652	0,046
76,600	-6,653	0,047
76,650	-6,652	0,046
76,700	-6,652	0,047
76,750	-6,651	0,046
76,800	-6,653	0,046
76,850	-6,653	0,047
76,900	-6,653	0,047
76,950	-6,653	0,047
77,000	-6,654	0,047
77,050	-6,653	0,047
77,100	-6,655	0,047
77,150	-6,654	0,046
77,200	-6,655	0,047
77,250	-6,654	0,047
77,300	-6,655	0,047
77,350	-6,654	0,046
77,400	-6,654	0,047
77,450	-6,654	0,046
77,500	-6,654	0,047
77,550	-6,653	0,047
77,600	-6,654	0,047
77,650	-6,653	0,047
77,700	-6,654	0,047
77,750	-6,653	0,047
77,800	-6,654	0,047
77,850	-6,653	0,047
77,900	-6,655	0,047
77,950	-6,653	0,047
78,000	-6,650	0,047
78,050	-6,649	0,047
78,100	-6,649	0,047
78,150	-6,649	0,047
78,200	-6,648	0,047
78,250	-6,636	0,047
78,300	-6,626	0,047
78,350	-6,624	0,047
78,400	-6,609	0,047
78,450	-6,598	0,047
78,500	-6,597	0,047
78,550	-6,597	0,047
78,600	-6,583	0,048
78,650	-6,563	0,047
78,700	-6,562	0,047
78,750	-6,562	0,047
78,800	-6,558	0,047
78,850	-6,537	0,047
78,900	-6,519	0,048
78,950	-6,514	0,047
79,000	-6,514	0,047
79,050	-6,507	0,047
79,100	-6,500	0,048
79,150	-6,500	0,047
79,200	-6,500	0,047
79,250	-6,500	0,047
79,300	-6,499	0,048
79,350	-6,498	0,047
79,400	-6,497	0,048
79,450	-6,497	0,047
79,500	-6,497	0,048
79,550	-6,497	0,047
79,600	-6,495	0,048
79,650	-6,479	0,048
79,700	-6,478	0,048
79,750	-6,478	0,047
79,800	-6,478	0,048
79,850	-6,478	0,047
79,900	-6,478	0,048
79,950	-6,478	0,047
80,000	-6,478	0,048
80,050	-6,478	0,047
80,100	-6,478	0,048
80,150	-6,478	0,047
80,200	-6,478	0,048
80,250	-6,471	0,047
80,300	-6,469	0,048
80,350	-6,469	0,047
80,400	-6,469	0,048
80,450	-6,469	0,048
80,500	-6,469	0,048
80,550	-6,469	0,047
80,600	-6,468	0,048
80,650	-6,457	0,047
80,700	-6,456	0,048
80,750	-6,456	0,047
80,800	-6,456	0,048
80,850	-6,456	0,048
80,900	-6,455	0,048
80,950	-6,456	0,048
81,000	-6,456	0,048
81,050	-6,456	0,048
81,100	-6,455	0,048
81,150	-6,456	0,048
81,200	-6,456	0,048
81,250	-6,458	0,048
81,300	-6,456	0,048
81,350	-6,456	0,048
81,400	-6,456	0,048
81,450	-6,456	0,048
81,500	-6,456	0,048
81,550	-6,455	0,048
81,600	-6,445	0,048
81,650	-6,435	0,048
81,700	-6,430	0,049
81,750	-6,426	0,048
81,800	-6,415	0,049
81,850	-6,403	0,048
81,900	-6,380	0,049
81,950	-6,353	0,048
82,000	-6,344	0,049
82,050	-6,344	0,048
82,100	-6,344	0,049
82,150	-6,344	0,048
82,200	-6,341	0,049
82,250	-6,327	0,048
82,300	-6,326	0,049
82,350	-6,326	0,048
82,400	-6,326	0,049
82,450	-6,321	0,048
82,500	-6,317	0,048
82,550	-6,316	0,048
82,600	-6,313	0,049
82,650	-6,297	0,048
82,700	-6,274	0,048
82,750	-6,271	0,048
82,800	-6,271	0,049
82,850	-6,262	0,048
82,900	-6,250	0,049
82,950	-6,251	0,048
83,000	-6,244	0,049
83,050	-6,242	0,048
83,100	-6,242	0,049
83,150	-6,242	0,048
83,200	-6,242	0,049
83,250	-6,242	0,048
83,300	-6,242	0,049
83,350	-6,242	0,048
83,400	-6,242	0,049
83,450	-6,242	0,048
83,500	-6,242	0,049
83,550	-6,242	0,048
83,600	-6,236	0,049
83,650	-6,208	0,048
83,700	-6,199	0,049
83,750	-6,178	0,048
83,800	-6,149	0,049
83,850	-6,138	0,048
83,900	-6,130	0,049
83,950	-6,120	0,048
84,000	-6,117	0,049
84,050	-6,112	0,048
84,100	-6,107	0,049
84,150	-6,107	0,048
84,200	-6,108	0,049
84,250	-6,107	0,048
84,300	-6,108	0,049
84,350	-6,107	0,048
84,400	-6,108	0,049
84,450	-6,107	0,048
84,500	-6,107	0,049
84,550	-6,100	0,048
84,600	-6,078	0,049
84,650	-6,050	0,048
84,700	-6,040	0,049
84,750	-6,032	0,048
84,800	-6,021	0,049
84,850	-6,003	0,048
84,900	-5,993	0,049
84,950	-5,983	0,048
85,000	-5,975	0,049
85,050	-5,957	0,048
85,100	-5,949	0,049
85,150	-5,935	0,048
85,200	-5,922	0,049
85,250	-5,913	0,048
85,300	-5,908	0,049
85,350	-5,908	0,048
85,400	-5,907	0,049
85,450	-5,907	0,048
85,500	-5,907	0,049
85,550	-5,907	0,048
85,600	-5,907	0,049
85,650	-5,907	0,048
85,700	-5,907	0,049
85,750	-5,905	0,048
85,800	-5,889	0,049
85,850	-5,867	0,048
85,900	-5,844	0,049
85,950	-5,843	0,048
86,000	-5,843	0,049
86,050	-5,842	0,049
86,100	-5,842	0,049
86,150	-5,841	0,048
86,200	-5,834	0,049
86,250	-5,824	0,048
86,300	-5,817	0,049
86,350	-5,806	0,048
86,400	-5,792	0,049
86,450	-5,788	0,049
86,500	-5,788	0,049
86,550	-5,787	0,049
86,600	-5,787	0,049
86,650	-5,787	0,049
86,700	-5,787	0,049
86,750	-5,787	0,049
86,800	-5,787	0,049
86,850	-5,787	0,049
86,900	-5,787	0,050
86,950	-5,787	0,049
87,000	-5,786	0,050
87,050	-5,786	0,049
87,100	-5,785	0,050
87,150	-5,785	0,049
87,200	-5,774	0,049
87,250	-5,762	0,049
87,300	-5,756	0,050
87,350	-5,751	0,049
87,400	-5,744	0,049
87,450	-5,731	0,049
87,500	-5,729	0,049
87,550	-5,718	0,049
87,600	-5,707	0,049
87,650	-5,703	0,049
87,700	-5,697	0,050
87,750	-5,694	0,049
87,800	-5,681	0,050
87,850	-5,676	0,049
87,900	-5,670	0,050
87,950	-5,662	0,049
88,000	-5,649	0,050
88,050	-5,641	0,049
88,100	-5,631	0,049
88,150	-5,625	0,049
88,200	-5,613	0,050
88,250	-5,603	0,049
88,300	-5,594	0,049
88,350	-5,591	0,049
88,400	-5,591	0,050
88,450	-5,591	0,049
88,500	-5,586	0,050
88,550	-5,573	0,049
88,600	-5,566	0,050
88,650	-5,556	0,049
88,700	-5,547	0,050
88,750	-5,538	0,049
88,800	-5,531	0,050
88,850	-5,530	0,049
88,900	-5,529	0,050
88,950	-5,529	0,049
89,000	-5,529	0,050
89,050	-5,529	0,049
89,100	-5,530	0,049
89,150	-5,529	0,049
89,200	-5,529	0,050
89,250	-5,529	0,049
89,300	-5,529	0,050
89,350	-5,529	0,049
89,400	-5,529	0,050
89,450	-5,529	0,049
89,500	-5,529	0,050
89,550	-5,529	0,050
89,600	-5,526	0,050
89,650	-5,519	0,049
89,700	-5,513	0,050
89,750	-5,502	0,049
89,800	-5,492	0,050
89,850	-5,477	0,050
89,900	-5,468	0,050
89,950	-5,460	0,049
90,000	-5,447	0,050
90,050	-5,439	0,049
90,100	-5,435	0,050
90,150	-5,430	0,049
90,200	-5,425	0,050
90,250	-5,421	0,049
90,300	-5,421	0,050
90,350	-5,406	0,050
90,400	-5,400	0,050
90,450	-5,399	0,049
90,500	-5,395	0,050
90,550	-5,387	0,050
90,600	-5,381	0,050
90,650	-5,381	0,049
90,700	-5,381	0,050
90,750	-5,381	0,049
90,800	-5,381	0,050
90,850	-5,381	0,050
90,900	-5,381	0,050
90,950	-5,381	0,049
91,000	-5,371	0,050
91,050	-5,355	0,050
91,100	-5,354	0,050
91,150	-5,345	0,050
91,200	-5,335	0,050
91,250	-5,327	0,050
91,300	-5,323	0,050
91,350	-5,315	0,050
91,400	-5,295	0,050
91,450	-5,292	0,050
91,500	-5,285	0,051
91,550	-5,279	0,050
91,600	-5,274	0,050
91,650	-5,274	0,050
91,700	-5,270	0,050
91,750	-5,263	0,049
91,800	-5,251	0,050
91,850	-5,247	0,050
91,900	-5,247	0,050
91,950	-5,247	0,050
92,000	-5,247	0,051
92,050	-5,237	0,050
92,100	-5,230	0,051
92,150	-5,225	0,050
92,200	-5,217	0,051
92,250	-5,213	0,050
92,300	-5,213	0,050
92,350	-5,212	0,050
92,400	-5,213	0,051
92,450	-5,213	0,050
92,500	-5,212	0,051
92,550	-5,208	0,050
92,600	-5,193	0,051
92,650	-5,184	0,050
92,700	-5,168	0,050
92,750	-5,147	0,050
92,800	-5,126	0,050
92,850	-5,112	0,050
92,900	-5,109	0,051
92,950	-5,103	0,050
93,000	-5,100	0,050
93,050	-5,100	0,050
93,100	-5,100	0,050
93,150	-5,100	0,050
93,200	-5,100	0,050
93,250	-5,100	0,050
93,300	-5,100	0,051
93,350	-5,100	0,050
93,400	-5,100	0,050
93,450	-5,100	0,050
93,500	-5,100	0,051
93,550	-5,100	0,050
93,600	-5,100	0,051
93,650	-5,100	0,050
93,700	-5,100	0,051
93,750	-5,100	0,050
93,800	-5,100	0,051
93,850	-5,097	0,050
93,900	-5,064	0,051
93,950	-5,027	0,050
94,000	-5,018	0,051
94,050	-5,009	0,050
94,100	-5,000	0,051
94,150	-4,993	0,050
94,200	-4,988	0,051
94,250	-4,988	0,050
94,300	-4,978	0,050
94,350	-4,962	0,050
94,400	-4,956	0,051
94,450	-4,947	0,050
94,500	-4,943	0,051
94,550	-4,939	0,050
94,600	-4,934	0,051
94,650	-4,928	0,050
94,700	-4,920	0,051
94,750	-4,908	0,050
94,800	-4,896	0,050
94,850	-4,885	0,050
94,900	-4,878	0,051
94,950	-4,869	0,050
95,000	-4,859	0,051
95,050	-4,849	0,050
95,100	-4,845	0,051
95,150	-4,843	0,050
95,200	-4,837	0,051
95,250	-4,832	0,050
95,300	-4,831	0,050
95,350	-4,823	0,050
95,400	-4,820	0,051
95,450	-4,810	0,050
95,500	-4,805	0,051
95,550	-4,802	0,050
95,600	-4,793	0,051
95,650	-4,787	0,050
95,700	-4,779	0,050
95,750	-4,764	0,050
95,800	-4,756	0,050
95,850	-4,748	0,050
95,900	-4,740	0,051
95,950	-4,737	0,050
96,000	-4,732	0,051
96,050	-4,726	0,050
96,100	-4,720	0,051
96,150	-4,711	0,050
96,200	-4,708	0,051
96,250	-4,702	0,050
96,300	-4,702	0,051
96,350	-4,702	0,050
96,400	-4,700	0,051
96,450	-4,696	0,050
96,500	-4,690	0,051
96,550	-4,684	0,050
96,600	-4,679	0,051
96,650	-4,680	0,050
96,700	-4,680	0,051
96,750	-4,678	0,050
96,800	-4,676	0,051
96,850	-4,674	0,050
96,900	-4,667	0,051
96,950	-4,663	0,050
97,000	-4,662	0,051
97,050	-4,659	0,051
97,100	-4,655	0,051
97,150	-4,651	0,050
97,200	-4,649	0,051
97,250	-4,644	0,050
97,300	-4,638	0,051
97,350	-4,634	0,050
97,400	-4,631	0,051
97,450	-4,627	0,050
97,500	-4,622	0,051
97,550	-4,615	0,050
97,600	-4,610	0,051
97,650	-4,605	0,050
97,700	-4,603	0,051
97,750	-4,600	0,050
97,800	-4,596	0,051
97,850	-4,592	0,050
97,900	-4,587	0,051
97,950	-4,579	0,051
98,000	-4,573	0,051
98,050	-4,567	0,050
98,100	-4,560	0,051
98,150	-4,548	0,051
98,200	-4,534	0,051
98,250	-4,525	0,050
98,300	-4,518	0,051
98,350	-4,512	0,050
98,400	-4,511	0,051
98,450	-4,509	0,051
98,500	-4,506	0,051
98,550	-4,506	0,051
98,600	-4,502	0,051
98,650	-4,502	0,051
98,700	-4,498	0,051
98,750	-4,495	0,051
98,800	-4,494	0,051
98,850	-4,494	0,051
98,900	-4,494	0,051
98,950	-4,494	0,051
99,000	-4,494	0,051
99,050	-4,494	0,051
99,100	-4,494	0,052
99,150	-4,494	0,051
99,200	-4,493	0,052
99,250	-4,493	0,051
99,300	-4,482	0,052
99,350	-4,473	0,051
99,400	-4,471	0,052
99,450	-4,471	0,051
99,500	-4,467	0,051
99,550	-4,463	0,051
99,600	-4,461	0,052
99,650	-4,455	0,051
99,700	-4,445	0,052
99,750	-4,432	0,051
99,800	-4,418	0,052
99,850	-4,409	0,051
99,900	-4,408	0,052
99,950	-4,408	0,051
100,000	-4,408	0,052
100,050	-4,408	0,051
100,100	-4,408	0,052
100,150	-4,408	0,051
100,200	-4,408	0,052
100,250	-4,407	0,051
100,300	-4,406	0,052
100,350	-4,405	0,051
100,400	-4,402	0,052
100,450	-4,387	0,051
100,500	-4,376	0,052
100,550	-4,372	0,051
100,600	-4,359	0,052
100,650	-4,335	0,051
100,700	-4,311	0,052
100,750	-4,299	0,051
100,800	-4,298	0,052
100,850	-4,298	0,051
100,900	-4,298	0,052
100,950	-4,290	0,051
101,000	-4,290	0,052
101,050	-4,290	0,051
101,100	-4,289	0,052
101,150	-4,290	0,051
101,200	-4,290	0,052
101,250	-4,290	0,051
101,300	-4,288	0,052
101,350	-4,276	0,051
101,400	-4,266	0,052
101,450	-4,258	0,051
101,500	-4,253	0,052
101,550	-4,242	0,051
101,600	-4,230	0,052
101,650	-4,221	0,052
101,700	-4,214	0,052
101,750	-4,201	0,051
101,800	-4,195	0,052
101,850	-4,190	0,052
101,900	-4,182	0,052
101,950	-4,175	0,051
102,000	-4,172	0,052
102,050	-4,169	0,051
102,100	-4,168	0,052
102,150	-4,160	0,052
102,200	-4,153	0,052
102,250	-4,146	0,052
102,300	-4,138	0,052
102,350	-4,123	0,052
102,400	-4,105	0,052
102,450	-4,102	0,052
102,500	-4,099	0,052
102,550	-4,095	0,052
102,600	-4,093	0,052
102,650	-4,093	0,052
102,700	-4,075	0,052
102,750	-4,066	0,052
102,800	-4,066	0,052
102,850	-4,059	0,052
102,900	-4,058	0,052
102,950	-4,058	0,052
103,000	-4,035	0,052
103,050	-4,008	0,052
103,100	-3,990	0,052
103,150	-3,979	0,052
103,200	-3,978	0,052
103,250	-3,978	0,052
103,300	-3,978	0,052
103,350	-3,975	0,052
103,400	-3,973	0,052
103,450	-3,966	0,052
103,500	-3,963	0,052
103,550	-3,953	0,052
103,600	-3,932	0,052
103,650	-3,919	0,052
103,700	-3,915	0,053
103,750	-3,903	0,052
103,800	-3,889	0,052
103,850	-3,889	0,052
103,900	-3,889	0,052
103,950	-3,888	0,052
104,000	-3,884	0,052
104,050	-3,879	0,052
104,100	-3,871	0,053
104,150	-3,871	0,052
104,200	-3,871	0,052
104,250	-3,869	0,052
104,300	-3,859	0,052
104,350	-3,855	0,052
104,400	-3,854	0,052
104,450	-3,853	0,052
104,500	-3,851	0,053
104,550	-3,847	0,052
104,600	-3,838	0,053
104,650	-3,826	0,052
104,700	-3,820	0,053
104,750	-3,811	0,052
104,800	-3,805	0,053
104,850	-3,799	0,052
104,900	-3,791	0,052
104,950	-3,783	0,052
105,000	-3,782	0,053
105,050	-3,778	0,052
105,100	-3,772	0,052
105,150	-3,765	0,052
105,200	-3,765	0,053
105,250	-3,760	0,052
105,300	-3,759	0,053
105,350	-3,759	0,052
105,400	-3,751	0,053
105,450	-3,747	0,052
105,500	-3,743	0,053
105,550	-3,738	0,052
105,600	-3,733	0,053
105,650	-3,729	0,052
105,700	-3,722	0,053
105,750	-3,717	0,052
105,800	-3,713	0,053
105,850	-3,709	0,052
105,900	-3,706	0,053
105,950	-3,698	0,052
106,000	-3,686	0,053
106,050	-3,681	0,052
106,100	-3,677	0,053
106,150	-3,671	0,052
106,200	-3,668	0,053
106,250	-3,662	0,052
106,300	-3,658	0,053
106,350	-3,652	0,052
106,400	-3,646	0,053
106,450	-3,642	0,052
106,500	-3,631	0,053
106,550	-3,621	0,052
106,600	-3,615	0,053
106,650	-3,610	0,052
106,700	-3,609	0,053
106,750	-3,609	0,052
106,800	-3,609	0,053
106,850	-3,608	0,052
106,900	-3,600	0,053
106,950	-3,601	0,052
107,000	-3,598	0,053
107,050	-3,588	0,052
107,100	-3,587	0,053
107,150	-3,587	0,052
107,200	-3,587	0,053
107,250	-3,587	0,052
107,300	-3,587	0,053
107,350	-3,586	0,053
107,400	-3,547	0,053
107,450	-3,521	0,052
107,500	-3,520	0,053
107,550	-3,520	0,052
107,600	-3,520	0,053
107,650	-3,520	0,052
107,700	-3,520	0,053
107,750	-3,520	0,052
107,800	-3,517	0,053
107,850	-3,503	0,052
107,900	-3,501	0,053
107,950	-3,501	0,052
108,000	-3,501	0,053
108,050	-3,501	0,052
108,100	-3,501	0,053
108,150	-3,501	0,052
108,200	-3,501	0,053
108,250	-3,501	0,053
108,300	-3,501	0,053
108,350	-3,501	0,052
108,400	-3,497	0,053
108,450	-3,493	0,053
108,500	-3,489	0,053
108,550	-3,470	0,052
108,600	-3,453	0,053
108,650	-3,447	0,052
108,700	-3,438	0,053
108,750	-3,426	0,052
108,800	-3,426	0,053
108,850	-3,426	0,052
108,900	-3,403	0,053
108,950	-3,372	0,052
109,000	-3,344	0,053
109,050	-3,334	0,052
109,100	-3,319	0,053
109,150	-3,319	0,052
109,200	-3,315	0,053
109,250	-3,310	0,052
109,300	-3,308	0,053
109,350	-3,297	0,052
109,400	-3,294	0,054
109,450	-3,282	0,052
109,500	-3,278	0,053
109,550	-3,274	0,052
109,600	-3,274	0,053
109,650	-3,268	0,052
109,700	-3,267	0,053
109,750	-3,263	0,052
109,800	-3,254	0,053
109,850	-3,243	0,052
109,900	-3,227	0,053
109,950	-3,216	0,052
110,000	-3,204	0,053
110,050	-3,198	0,052
110,100	-3,190	0,053
110,150	-3,181	0,052
110,200	-3,173	0,053
110,250	-3,166	0,052
110,300	-3,160	0,053
110,350	-3,159	0,052
110,400	-3,159	0,053
110,450	-3,159	0,052
110,500	-3,159	0,053
110,550	-3,159	0,052
110,600	-3,155	0,054
110,650	-3,147	0,053
110,700	-3,143	0,054
110,750	-3,136	0,053
110,800	-3,130	0,053
110,850	-3,123	0,053
110,900	-3,119	0,053
110,950	-3,116	0,052
111,000	-3,115	0,054
111,050	-3,112	0,053
111,100	-3,111	0,053
111,150	-3,110	0,053
111,200	-3,103	0,053
111,250	-3,102	0,052
111,300	-3,102	0,054
111,350	-3,101	0,053
111,400	-3,101	0,054
111,450	-3,092	0,053
111,500	-3,084	0,054
111,550	-3,084	0,053
111,600	-3,084	0,053
111,650	-3,084	0,052
111,700	-3,081	0,054
111,750	-3,072	0,053
111,800	-3,062	0,054
111,850	-3,062	0,053
111,900	-3,062	0,053
111,950	-3,062	0,053
112,000	-3,061	0,054
112,050	-3,056	0,053
112,100	-3,040	0,054
112,150	-3,023	0,053
112,200	-3,014	0,054
112,250	-3,013	0,053
112,300	-3,013	0,054
112,350	-3,014	0,053
112,400	-3,017	0,054
112,450	-3,015	0,053
112,500	-3,014	0,054
112,550	-3,013	0,053
112,600	-3,014	0,054
112,650	-3,014	0,053
112,700	-3,013	0,054
112,750	-3,013	0,053
112,800	-3,014	0,054
112,850	-3,014	0,053
112,900	-3,013	0,054
112,950	-3,013	0,053
113,000	-3,013	0,054
113,050	-3,014	0,053
113,100	-3,014	0,054
113,150	-3,013	0,053
113,200	-3,013	0,054
113,250	-3,013	0,053
113,300	-2,981	0,054
113,350	-2,930	0,053
113,400	-2,919	0,054
113,450	-2,915	0,053
113,500	-2,915	0,054
113,550	-2,915	0,053
113,600	-2,915	0,054
113,650	-2,915	0,053
113,700	-2,915	0,054
113,750	-2,911	0,053
113,800	-2,902	0,054
113,850	-2,901	0,053
113,900	-2,887	0,054
113,950	-2,879	0,053
114,000	-2,879	0,054
114,050	-2,879	0,053
114,100	-2,879	0,054
114,150	-2,879	0,053
114,200	-2,858	0,054
114,250	-2,831	0,053
114,300	-2,819	0,054
114,350	-2,817	0,053
114,400	-2,817	0,054
114,450	-2,817	0,053
114,500	-2,817	0,054
114,550	-2,817	0,053
114,600	-2,817	0,054
114,650	-2,817	0,053
114,700	-2,816	0,054
114,750	-2,814	0,053
114,800	-2,808	0,054
114,850	-2,781	0,053
114,900	-2,760	0,054
114,950	-2,753	0,053
115,000	-2,747	0,054
115,050	-2,747	0,053
115,100	-2,736	0,054
115,150	-2,730	0,053
115,200	-2,716	0,054
115,250	-2,711	0,053
115,300	-2,706	0,054
115,350	-2,699	0,053
115,400	-2,691	0,055
115,450	-2,689	0,053
115,500	-2,684	0,055
115,550	-2,672	0,053
115,600	-2,667	0,054
115,650	-2,664	0,053
115,700	-2,653	0,054
115,750	-2,653	0,053
115,800	-2,646	0,054
115,850	-2,633	0,053
115,900	-2,629	0,055
115,950	-2,624	0,053
116,000	-2,622	0,054
116,050	-2,618	0,053
116,100	-2,603	0,054
116,150	-2,593	0,053
116,200	-2,582	0,054
116,250	-2,567	0,053
116,300	-2,554	0,054
116,350	-2,548	0,053
116,400	-2,547	0,054
116,450	-2,547	0,053
116,500	-2,547	0,055
116,550	-2,547	0,054
116,600	-2,547	0,055
116,650	-2,546	0,054
116,700	-2,547	0,055
116,750	-2,545	0,053
116,800	-2,524	0,055
116,850	-2,500	0,054
116,900	-2,494	0,054
116,950	-2,479	0,054
117,000	-2,471	0,055
117,050	-2,471	0,054
117,100	-2,463	0,055
117,150	-2,454	0,054
117,200	-2,445	0,055
117,250	-2,437	0,053
117,300	-2,426	0,055
117,350	-2,426	0,053
117,400	-2,426	0,055
117,450	-2,426	0,053
117,500	-2,417	0,055
117,550	-2,411	0,054
117,600	-2,409	0,055
117,650	-2,409	0,054
117,700	-2,409	0,055
117,750	-2,409	0,053
117,800	-2,396	0,055
117,850	-2,366	0,054
117,900	-2,330	0,055
117,950	-2,328	0,054
118,000	-2,328	0,055
118,050	-2,326	0,054
118,100	-2,312	0,055
118,150	-2,310	0,054
118,200	-2,310	0,055
118,250	-2,310	0,054
118,300	-2,310	0,055
118,350	-2,292	0,054
118,400	-2,277	0,055
118,450	-2,270	0,054
118,500	-2,270	0,055
118,550	-2,270	0,054
118,600	-2,267	0,055
118,650	-2,261	0,054
118,700	-2,254	0,055
118,750	-2,241	0,054
118,800	-2,238	0,055
118,850	-2,232	0,054
118,900	-2,220	0,055
118,950	-2,213	0,054
119,000	-2,203	0,055
119,050	-2,199	0,054
119,100	-2,199	0,055
119,150	-2,199	0,054
119,200	-2,198	0,055
119,250	-2,186	0,054
119,300	-2,181	0,055
119,350	-2,181	0,054
119,400	-2,181	0,055
119,450	-2,181	0,054
119,500	-2,181	0,055
119,550	-2,183	0,054
119,600	-2,248	0,055
119,650	-2,305	0,054
119,700	-2,306	0,055
119,750	-2,306	0,055
119,800	-2,306	0,056
119,850	-2,306	0,055
119,900	-2,306	0,056
119,950	-2,302	0,055
120,000	-2,302	0,056
120,050	-2,302	0,055
120,100	-2,302	0,056
120,150	-2,302	0,055
120,200	-2,302	0,056
120,250	-2,301	0,055
120,300	-2,300	0,056
120,350	-2,293	0,055
120,400	-2,293	0,055
120,450	-2,288	0,055
120,500	-2,279	0,056
120,550	-2,265	0,055
120,600	-2,261	0,056
120,650	-2,253	0,055
120,700	-2,252	0,056
120,750	-2,252	0,054
120,800	-2,252	0,056
120,850	-2,250	0,055
120,900	-2,232	0,056
120,950	-2,213	0,055
121,000	-2,207	0,056
121,050	-2,207	0,055
121,100	-2,206	0,056
121,150	-2,195	0,055
121,200	-2,190	0,056
121,250	-2,166	0,055
121,300	-2,155	0,056
121,350	-2,155	0,055
121,400	-2,155	0,056
121,450	-2,155	0,055
121,500	-2,155	0,056
121,550	-2,145	0,055
121,600	-2,142	0,056
121,650	-2,134	0,055
121,700	-2,119	0,056
121,750	-2,119	0,055
121,800	-2,109	0,056
121,850	-2,105	0,055
121,900	-2,104	0,056
121,950	-2,097	0,055
122,000	-2,096	0,056
122,050	-2,096	0,055
122,100	-2,095	0,056
122,150	-2,090	0,055
122,200	-2,080	0,056
122,250	-2,070	0,055
122,300	-2,063	0,056
122,350	-2,057	0,055
122,400	-2,049	0,056
122,450	-2,047	0,055
122,500	-2,045	0,056
122,550	-2,036	0,055
122,600	-2,032	0,056
122,650	-2,027	0,055
122,700	-2,018	0,056
122,750	-2,004	0,055
122,800	-2,000	0,056
122,850	-1,989	0,055
122,900	-1,985	0,056
122,950	-1,982	0,055
123,000	-1,980	0,056
123,050	-1,980	0,055
123,100	-1,980	0,056
123,150	-1,980	0,055
123,200	-1,980	0,056
123,250	-1,980	0,055
123,300	-1,980	0,057
123,350	-1,980	0,055
123,400	-1,980	0,056
123,450	-1,980	0,055
123,500	-1,979	0,056
123,550	-1,970	0,055
123,600	-1,957	0,057
123,650	-1,948	0,055
123,700	-1,948	0,057
123,750	-1,947	0,055
123,800	-1,941	0,056
123,850	-1,932	0,055
123,900	-1,930	0,056
123,950	-1,923	0,056
124,000	-1,921	0,057
124,050	-1,913	0,056
124,100	-1,902	0,056
124,150	-1,896	0,055
124,200	-1,895	0,056
124,250	-1,895	0,056
124,300	-1,891	0,056
124,350	-1,886	0,056
124,400	-1,872	0,057
124,450	-1,868	0,056
124,500	-1,856	0,057
124,550	-1,848	0,056
124,600	-1,847	0,057
124,650	-1,843	0,055
124,700	-1,843	0,057
124,750	-1,838	0,056
124,800	-1,834	0,057
124,850	-1,834	0,056
124,900	-1,832	0,056
124,950	-1,829	0,056
125,000	-1,826	0,057
125,050	-1,820	0,056
125,100	-1,820	0,057
125,150	-1,810	0,056
125,200	-1,803	0,057
125,250	-1,801	0,056
125,300	-1,785	0,057
125,350	-1,776	0,056
125,400	-1,771	0,057
125,450	-1,763	0,055
125,500	-1,758	0,057
125,550	-1,755	0,056
125,600	-1,749	0,057
125,650	-1,747	0,056
125,700	-1,738	0,057
125,750	-1,732	0,056
125,800	-1,726	0,057
125,850	-1,719	0,056
125,900	-1,711	0,057
125,950	-1,704	0,056
126,000	-1,693	0,057
126,050	-1,686	0,056
126,100	-1,683	0,057
126,150	-1,675	0,056
126,200	-1,667	0,057
126,250	-1,661	0,056
126,300	-1,656	0,057
126,350	-1,655	0,056
126,400	-1,656	0,057
126,450	-1,643	0,056
126,500	-1,618	0,057
126,550	-1,610	0,056
126,600	-1,610	0,057
126,650	-1,610	0,056
126,700	-1,610	0,057
126,750	-1,610	0,056
126,800	-1,610	0,057
126,850	-1,597	0,056
126,900	-1,592	0,057
126,950	-1,592	0,056
127,000	-1,593	0,057
127,050	-1,592	0,056
127,100	-1,592	0,057
127,150	-1,593	0,056
127,200	-1,592	0,057
127,250	-1,592	0,056
127,300	-1,593	0,057
127,350	-1,592	0,057
127,400	-1,592	0,057
127,450	-1,592	0,056
127,500	-1,592	0,057
127,550	-1,591	0,056
127,600	-1,584	0,057
127,650	-1,580	0,057
127,700	-1,571	0,057
127,750	-1,558	0,056
127,800	-1,549	0,057
127,850	-1,546	0,056
127,900	-1,537	0,057
127,950	-1,530	0,056
128,000	-1,518	0,057
128,050	-1,505	0,056
128,100	-1,503	0,057
128,150	-1,500	0,056
128,200	-1,492	0,057
128,250	-1,488	0,057
128,300	-1,477	0,057
128,350	-1,464	0,056
128,400	-1,458	0,057
128,450	-1,451	0,056
128,500	-1,447	0,057
128,550	-1,439	0,057
128,600	-1,430	0,057
128,650	-1,424	0,057
128,700	-1,413	0,057
128,750	-1,407	0,056
128,800	-1,399	0,057
128,850	-1,393	0,056
128,900	-1,393	0,057
128,950	-1,393	0,056
129,000	-1,393	0,057
129,050	-1,393	0,057
129,100	-1,393	0,057
129,150	-1,393	0,057
129,200	-1,393	0,057
129,250	-1,393	0,057
129,300	-1,393	0,058
129,350	-1,393	0,057
129,400	-1,387	0,058
129,450	-1,358	0,057
129,500	-1,355	0,057
129,550	-1,350	0,057
129,600	-1,340	0,057
129,650	-1,339	0,057
129,700	-1,336	0,057
129,750	-1,332	0,057
129,800	-1,321	0,058
129,850	-1,312	0,057
129,900	-1,307	0,057
129,950	-1,293	0,057
130,000	-1,288	0,057
130,050	-1,281	0,057
130,100	-1,271	0,058
130,150	-1,269	0,057
130,200	-1,263	0,057
130,250	-1,255	0,057
130,300	-1,253	0,058
130,350	-1,247	0,057
130,400	-1,243	0,058
130,450	-1,231	0,057
130,500	-1,221	0,058
130,550	-1,213	0,057
130,600	-1,201	0,058
130,650	-1,194	0,057
130,700	-1,188	0,058
130,750	-1,176	0,057
130,800	-1,171	0,058
130,850	-1,171	0,057
130,900	-1,169	0,058
130,950	-1,167	0,057
131,000	-1,162	0,058
131,050	-1,159	0,057
131,100	-1,154	0,058
131,150	-1,150	0,057
131,200	-1,147	0,058
131,250	-1,135	0,057
131,300	-1,121	0,058
131,350	-1,106	0,057
131,400	-1,096	0,058
131,450	-1,085	0,057
131,500	-1,075	0,058
131,550	-1,072	0,057
131,600	-1,064	0,058
131,650	-1,064	0,057
131,700	-1,059	0,058
131,750	-1,055	0,057
131,800	-1,051	0,058
131,850	-1,051	0,057
131,900	-1,045	0,058
131,950	-1,040	0,057
132,000	-1,034	0,058
132,050	-1,027	0,057
132,100	-1,024	0,058
132,150	-1,020	0,057
132,200	-1,020	0,058
132,250	-1,020	0,057
132,300	-1,020	0,058
132,350	-1,020	0,057
132,400	-1,018	0,058
132,450	-1,011	0,057
132,500	-1,011	0,058
132,550	-1,011	0,057
132,600	-1,011	0,058
132,650	-1,004	0,057
132,700	-1,000	0,058
132,750	-0,992	0,058
132,800	-0,982	0,058
132,850	-0,968	0,057
132,900	-0,955	0,058
132,950	-0,946	0,058
133,000	-0,940	0,058
133,050	-0,940	0,058
133,100	-0,939	0,058
133,150	-0,930	0,057
133,200	-0,918	0,058
133,250	-0,904	0,057
133,300	-0,893	0,058
133,350	-0,891	0,057
133,400	-0,890	0,058
133,450	-0,889	0,058
133,500	-0,888	0,058
133,550	-0,886	0,057
133,600	-0,870	0,058
133,650	-0,857	0,058
133,700	-0,849	0,058
133,750	-0,845	0,057
133,800	-0,831	0,058
133,850	-0,820	0,058
133,900	-0,810	0,058
133,950	-0,804	0,058
134,000	-0,798	0,058
134,050	-0,797	0,057
134,100	-0,788	0,058
134,150	-0,781	0,057
134,200	-0,778	0,058
134,250	-0,774	0,057
134,300	-0,768	0,058
134,350	-0,761	0,057
134,400	-0,758	0,058
134,450	-0,757	0,057
134,500	-0,757	0,058
134,550	-0,757	0,057
134,600	-0,758	0,058
134,650	-0,757	0,057
134,700	-0,752	0,058
134,750	-0,746	0,058
134,800	-0,733	0,058
134,850	-0,725	0,058
134,900	-0,717	0,059
134,950	-0,710	0,057
135,000	-0,703	0,058
135,050	-0,699	0,058
135,100	-0,692	0,058
135,150	-0,683	0,058
135,200	-0,671	0,058
135,250	-0,657	0,058
135,300	-0,655	0,058
135,350	-0,649	0,058
135,400	-0,644	0,058
135,450	-0,639	0,058
135,500	-0,630	0,058
135,550	-0,623	0,058
135,600	-0,611	0,058
135,650	-0,596	0,058
135,700	-0,582	0,058
135,750	-0,563	0,057
135,800	-0,549	0,058
135,850	-0,537	0,057
135,900	-0,536	0,058
135,950	-0,530	0,058
136,000	-0,523	0,058
136,050	-0,518	0,058
136,100	-0,504	0,058
136,150	-0,492	0,058
136,200	-0,471	0,058
136,250	-0,452	0,058
136,300	-0,451	0,058
136,350	-0,451	0,058
136,400	-0,450	0,058
136,450	-0,448	0,058
136,500	-0,447	0,058
136,550	-0,446	0,058
136,600	-0,447	0,058
136,650	-0,447	0,058
136,700	-0,447	0,058
136,750	-0,446	0,058
136,800	-0,447	0,058
136,850	-0,447	0,058
136,900	-0,447	0,059
136,950	-0,447	0,058
137,000	-0,439	0,059
137,050	-0,422	0,058
137,100	-0,417	0,058
137,150	-0,407	0,057
137,200	-0,402	0,058
137,250	-0,402	0,058
137,300	-0,402	0,059
137,350	-0,401	0,058
137,400	-0,398	0,059
137,450	-0,398	0,058
137,500	-0,398	0,058
137,550	-0,398	0,058
137,600	-0,398	0,058
137,650	-0,398	0,058
137,700	-0,398	0,059
137,750	-0,398	0,058
137,800	-0,398	0,058
137,850	-0,389	0,058
137,900	-0,372	0,059
137,950	-0,371	0,058
138,000	-0,370	0,059
138,050	-0,362	0,058
138,100	-0,359	0,058
138,150	-0,354	0,058
138,200	-0,354	0,059
138,250	-0,353	0,058
138,300	-0,345	0,059
138,350	-0,325	0,058
138,400	-0,315	0,059
138,450	-0,313	0,058
138,500	-0,314	0,059
138,550	-0,314	0,058
138,600	-0,314	0,059
138,650	-0,313	0,058
138,700	-0,314	0,059
138,750	-0,304	0,058
138,800	-0,289	0,059
138,850	-0,274	0,058
138,900	-0,265	0,059
138,950	-0,261	0,058
139,000	-0,261	0,059
139,050	-0,261	0,058
139,100	-0,261	0,059
139,150	-0,261	0,058
139,200	-0,261	0,059
139,250	-0,261	0,058
139,300	-0,258	0,059
139,350	-0,253	0,058
139,400	-0,245	0,059
139,450	-0,235	0,058
139,500	-0,229	0,059
139,550	-0,222	0,058
139,600	-0,204	0,059
139,650	-0,192	0,058
139,700	-0,187	0,059
139,750	-0,183	0,058
139,800	-0,181	0,059
139,850	-0,180	0,058
139,900	-0,170	0,059
139,950	-0,163	0,058
140,000	-0,159	0,059
140,050	-0,155	0,058
140,100	-0,154	0,059
140,150	-0,145	0,058
140,200	-0,138	0,059
140,250	-0,123	0,058
140,300	-0,115	0,059
140,350	-0,112	0,059
140,400	-0,100	0,059
140,450	-0,098	0,058
140,500	-0,097	0,059
140,550	-0,086	0,059
140,600	-0,079	0,059
140,650	-0,068	0,059
140,700	-0,062	0,059
140,750	-0,062	0,059
140,800	-0,062	0,059
140,850	-0,059	0,059
140,900	-0,051	0,059
140,950	-0,041	0,059
141,000	-0,034	0,059
141,050	-0,020	0,058
141,100	-0,018	0,059
141,150	-0,018	0,059
141,200	-0,016	0,059
141,250	-0,009	0,059
141,300	-0,010	0,059
141,350	-0,010	0,059
141,400	-0,010	0,059
141,450	-0,009	0,059
141,500	-0,010	0,060
141,550	-0,009	0,059
141,600	-0,010	0,059
141,650	-0,009	0,059
141,700	-0,009	0,059
141,750	-0,005	0,059
141,800	-0,006	0,059
141,850	-0,006	0,059
141,900	-0,010	0,060
141,950	-0,010	0,059
142,000	-0,010	0,060
142,050	-0,010	0,059
142,100	-0,010	0,060
142,150	-0,010	0,059
142,200	-0,010	0,060
142,250	-0,010	0,059
142,300	-0,010	0,060
142,350	-0,010	0,059
142,400	-0,010	0,060
142,450	-0,012	0,059
142,500	-0,014	0,060
142,550	-0,014	0,060
142,600	-0,014	0,060
142,650	-0,014	0,060
142,700	-0,014	0,060
142,750	-0,013	0,060
142,800	-0,013	0,060
142,850	0,006	0,059
142,900	0,013	0,060
142,950	0,011	0,059
143,000	0,012	0,060
143,050	0,011	0,059
143,100	0,011	0,060
143,150	0,011	0,059
143,200	0,011	0,060
143,250	0,012	0,059
143,300	0,012	0,060
143,350	0,012	0,059
143,400	0,012	0,060
143,450	0,012	0,059
143,500	0,011	0,060
143,550	0,011	0,059
143,600	0,011	0,060
143,650	0,012	0,060
143,700	0,011	0,060
143,750	0,011	0,059
143,800	0,011	0,060
143,850	0,011	0,060
143,900	0,011	0,060
143,950	0,012	0,060
144,000	0,011	0,060
144,050	0,011	0,060
144,100	0,011	0,060
144,150	0,011	0,060
144,200	0,014	0,060
144,250	0,015	0,060
144,300	0,016	0,060
144,350	0,024	0,060
144,400	0,034	0,060
144,450	0,040	0,060
144,500	0,048	0,060
144,550	0,051	0,060
144,600	0,053	0,061
144,650	0,060	0,060
144,700	0,064	0,060
144,750	0,065	0,060
144,800	0,073	0,061
144,850	0,078	0,060
144,900	0,095	0,060
144,950	0,112	0,060
145,000	0,113	0,061
145,050	0,116	0,060
145,100	0,119	0,061
145,150	0,129	0,060
145,200	0,130	0,060
145,250	0,131	0,060
145,300	0,130	0,061
145,350	0,130	0,060
145,400	0,131	0,061
145,450	0,130	0,060
145,500	0,130	0,061
145,550	0,131	0,060
145,600	0,131	0,061
145,650	0,131	0,061
145,700	0,133	0,061
145,750	0,144	0,060
145,800	0,144	0,061
145,850	0,144	0,061
145,900	0,147	0,061
145,950	0,149	0,061
146,000	0,152	0,061
146,050	0,153	0,061
146,100	0,153	0,061
146,150	0,153	0,061
146,200	0,159	0,061
146,250	0,161	0,060
146,300	0,161	0,061
146,350	0,162	0,061
146,400	0,161	0,061
146,450	0,162	0,061
146,500	0,164	0,061
146,550	0,170	0,061
146,600	0,181	0,061
146,650	0,199	0,061
146,700	0,201	0,061
146,750	0,201	0,061
146,800	0,201	0,061
146,850	0,211	0,061
146,900	0,216	0,061
146,950	0,218	0,061
147,000	0,225	0,061
147,050	0,233	0,061
147,100	0,240	0,061
147,150	0,243	0,061
147,200	0,248	0,061
147,250	0,255	0,060
147,300	0,265	0,061
147,350	0,271	0,061
147,400	0,272	0,062
147,450	0,272	0,061
147,500	0,272	0,061
147,550	0,272	0,061
147,600	0,272	0,061
147,650	0,273	0,061
147,700	0,289	0,062
147,750	0,294	0,061
147,800	0,296	0,061
147,850	0,298	0,061
147,900	0,298	0,061
147,950	0,299	0,061
148,000	0,300	0,062
148,050	0,306	0,061
148,100	0,307	0,062
148,150	0,310	0,061
148,200	0,319	0,061
148,250	0,325	0,061
148,300	0,326	0,062
148,350	0,339	0,061
148,400	0,343	0,061
148,450	0,359	0,061
148,500	0,372	0,061
148,550	0,376	0,061
148,600	0,386	0,061
148,650	0,391	0,061
148,700	0,391	0,062
148,750	0,391	0,061
148,800	0,394	0,062
148,850	0,407	0,061
148,900	0,414	0,061
148,950	0,428	0,061
149,000	0,437	0,062
149,050	0,440	0,061
149,100	0,457	0,061
149,150	0,483	0,061
149,200	0,499	0,061
149,250	0,517	0,061
149,300	0,520	0,062
149,350	0,520	0,061
149,400	0,520	0,061
149,450	0,520	0,061
149,500	0,521	0,061
149,550	0,534	0,061
149,600	0,548	0,062
149,650	0,551	0,061
149,700	0,551	0,062
149,750	0,557	0,061
149,800	0,560	0,061
149,850	0,560	0,061
149,900	0,574	0,061
149,950	0,578	0,061
150,000	0,578	0,061
150,050	0,584	0,061
150,100	0,600	0,061
150,150	0,632	0,061
150,200	0,673	0,061
150,250	0,679	0,061
150,300	0,684	0,061
150,350	0,701	0,061
150,400	0,701	0,061
150,450	0,701	0,061
150,500	0,701	0,061
150,550	0,702	0,061
150,600	0,702	0,061
150,650	0,702	0,061
150,700	0,701	0,061
150,750	0,702	0,061
150,800	0,710	0,061
150,850	0,735	0,061
150,900	0,749	0,061
150,950	0,750	0,061
151,000	0,754	0,061
151,050	0,772	0,061
151,100	0,781	0,061
151,150	0,782	0,061
151,200	0,782	0,061
151,250	0,784	0,061
151,300	0,791	0,061
151,350	0,791	0,061
151,400	0,796	0,062
151,450	0,811	0,061
151,500	0,813	0,061
151,550	0,820	0,061
151,600	0,839	0,061
151,650	0,853	0,061
151,700	0,853	0,061
151,750	0,854	0,061
151,800	0,861	0,061
151,850	0,881	0,061
151,900	0,885	0,061
151,950	0,885	0,061
152,000	0,884	0,061
152,050	0,888	0,062
152,100	0,898	0,061
152,150	0,906	0,061
152,200	0,927	0,062
152,250	0,938	0,062
152,300	0,938	0,061
152,350	0,944	0,061
152,400	0,959	0,061
152,450	0,983	0,061
152,500	1,001	0,061
152,550	1,004	0,062
152,600	1,004	0,062
152,650	1,004	0,061
152,700	1,004	0,061
152,750	1,004	0,061
152,800	1,004	0,062
152,850	1,004	0,061
152,900	1,004	0,061
152,950	1,004	0,062
153,000	1,004	0,061
153,050	1,004	0,061
153,100	1,004	0,062
153,150	1,026	0,062
153,200	1,077	0,061
153,250	1,096	0,061
153,300	1,102	0,061
153,350	1,120	0,061
153,400	1,138	0,061
153,450	1,164	0,061
153,500	1,192	0,061
153,550	1,200	0,061
153,600	1,200	0,061
153,650	1,200	0,061
153,700	1,200	0,061
153,750	1,200	0,061
153,800	1,200	0,061
153,850	1,200	0,061
153,900	1,200	0,061
153,950	1,225	0,062
154,000	1,240	0,061
154,050	1,251	0,061
154,100	1,295	0,061
154,150	1,317	0,061
154,200	1,355	0,061
154,250	1,377	0,061
154,300	1,377	0,061
154,350	1,386	0,061
154,400	1,391	0,061
154,450	1,391	0,061
154,500	1,393	0,061
154,550	1,427	0,061
154,600	1,467	0,061
154,650	1,476	0,061
154,700	1,488	0,061
154,750	1,509	0,061
154,800	1,520	0,061
154,850	1,520	0,061
154,900	1,520	0,061
154,950	1,525	0,061
155,000	1,525	0,061
155,050	1,526	0,061
155,100	1,528	0,061
155,150	1,530	0,061
155,200	1,531	0,061
155,250	1,546	0,061
155,300	1,562	0,061
155,350	1,584	0,061
155,400	1,591	0,061
155,450	1,598	0,062
155,500	1,624	0,061
155,550	1,642	0,061
155,600	1,645	0,061
155,650	1,666	0,061
155,700	1,676	0,061
155,750	1,676	0,061
155,800	1,676	0,061
155,850	1,676	0,061
155,900	1,676	0,061
155,950	1,676	0,062
156,000	1,677	0,061
156,050	1,679	0,061
156,100	1,690	0,061
156,150	1,719	0,061
156,200	1,753	0,061
156,250	1,763	0,061
156,300	1,772	0,061
156,350	1,809	0,061
156,400	1,827	0,061
156,450	1,827	0,061
156,500	1,827	0,061
156,550	1,827	0,061
156,600	1,827	0,061
156,650	1,827	0,061
156,700	1,827	0,061
156,750	1,828	0,062
156,800	1,827	0,061
156,850	1,827	0,061
156,900	1,831	0,061
156,950	1,855	0,062
157,000	1,886	0,061
157,050	1,910	0,062
157,100	1,942	0,061
157,150	1,963	0,061
157,200	1,965	0,061
157,250	1,965	0,061
157,300	1,965	0,061
157,350	1,965	0,061
157,400	1,965	0,061
157,450	1,965	0,061
157,500	1,965	0,061
157,550	1,982	0,061
157,600	2,012	0,061
157,650	2,022	0,061
157,700	2,038	0,061
157,750	2,082	0,061
157,800	2,110	0,061
157,850	2,120	0,061
157,900	2,149	0,061
157,950	2,162	0,061
158,000	2,175	0,061
158,050	2,197	0,061
158,100	2,224	0,061
158,150	2,252	0,061
158,200	2,269	0,060
158,250	2,292	0,061
158,300	2,321	0,060
158,350	2,331	0,061
158,400	2,331	0,060
158,450	2,331	0,061
158,500	2,331	0,060
158,550	2,332	0,061
158,600	2,346	0,060
158,650	2,358	0,061
158,700	2,367	0,060
158,750	2,376	0,061
158,800	2,377	0,061
158,850	2,409	0,061
158,900	2,480	0,060
158,950	2,538	0,061
159,000	2,594	0,060
159,050	2,625	0,061
159,100	2,630	0,060
159,150	2,630	0,060
159,200	2,630	0,060
159,250	2,630	0,060
159,300	2,649	0,060
159,350	2,652	0,061
159,400	2,652	0,060
159,450	2,652	0,061
159,500	2,652	0,060
159,550	2,652	0,061
159,600	2,667	0,060
159,650	2,677	0,061
159,700	2,689	0,060
159,750	2,700	0,061
159,800	2,706	0,060
159,850	2,706	0,061
159,900	2,706	0,060
159,950	2,707	0,061
160,000	2,707	0,060
160,050	2,718	0,061
160,100	2,719	0,060
160,150	2,724	0,061
160,200	2,736	0,060
160,250	2,741	0,061
160,300	2,755	0,060
160,350	2,761	0,061
160,400	2,780	0,060
160,450	2,785	0,061
160,500	2,785	0,060
160,550	2,785	0,061
160,600	2,785	0,060
160,650	2,797	0,061
160,700	2,799	0,060
160,750	2,798	0,061
160,800	2,799	0,060
160,850	2,799	0,061
160,900	2,799	0,061
160,950	2,799	0,061
161,000	2,799	0,061
161,050	2,805	0,061
161,100	2,809	0,060
161,150	2,820	0,061
161,200	2,840	0,060
161,250	2,864	0,061
161,300	2,888	0,060
161,350	2,900	0,061
161,400	2,900	0,060
161,450	2,900	0,061
161,500	2,900	0,060
161,550	2,900	0,061
161,600	2,900	0,060
161,650	2,900	0,061
161,700	2,900	0,061
161,750	2,900	0,061
161,800	2,901	0,060
161,850	2,920	0,061
161,900	2,949	0,061
161,950	2,953	0,061
162,000	2,954	0,060
162,050	2,959	0,061
162,100	2,963	0,060
162,150	2,963	0,061
162,200	2,963	0,060
162,250	2,965	0,061
162,300	2,967	0,060
162,350	2,967	0,061
162,400	2,976	0,060
162,450	2,977	0,061
162,500	2,977	0,060
162,550	2,978	0,061
162,600	2,977	0,061
162,650	2,983	0,061
162,700	2,993	0,061
162,750	2,998	0,061
162,800	2,998	0,060
162,850	2,998	0,061
162,900	2,998	0,061
162,950	3,000	0,061
163,000	3,016	0,061
163,050	3,017	0,061
163,100	3,027	0,061
163,150	3,060	0,061
163,200	3,086	0,061
163,250	3,088	0,061
163,300	3,087	0,060
163,350	3,088	0,061
163,400	3,087	0,061
163,450	3,088	0,061
163,500	3,087	0,061
163,550	3,088	0,062
163,600	3,087	0,061
163,650	3,088	0,061
163,700	3,087	0,061
163,750	3,087	0,061
163,800	3,087	0,061
163,850	3,088	0,062
163,900	3,087	0,061
163,950	3,087	0,061
164,000	3,087	0,061
164,050	3,088	0,061
164,100	3,096	0,061
164,150	3,105	0,062
164,200	3,113	0,061
164,250	3,114	0,062
164,300	3,114	0,061
164,350	3,114	0,062
164,400	3,115	0,061
164,450	3,125	0,062
164,500	3,127	0,061
164,550	3,128	0,062
164,600	3,135	0,061
164,650	3,137	0,061
164,700	3,138	0,061
164,750	3,139	0,062
164,800	3,138	0,061
164,850	3,139	0,062
164,900	3,140	0,061
164,950	3,141	0,061
165,000	3,141	0,061
165,050	3,145	0,062
165,100	3,147	0,061
165,150	3,156	0,062
165,200	3,166	0,061
165,250	3,168	0,062
165,300	3,168	0,061
165,350	3,167	0,062
165,400	3,167	0,061
165,450	3,167	0,062
165,500	3,167	0,061
165,550	3,167	0,062
165,600	3,167	0,061
165,650	3,169	0,062
165,700	3,180	0,061
165,750	3,186	0,062
165,800	3,188	0,061
165,850	3,189	0,062
165,900	3,189	0,061
165,950	3,189	0,062
166,000	3,189	0,062
166,050	3,189	0,062
166,100	3,189	0,061
166,150	3,188	0,062
166,200	3,189	0,062
166,250	3,189	0,062
166,300	3,193	0,062
166,350	3,194	0,062
166,400	3,209	0,062
166,450	3,220	0,062
166,500	3,221	0,062
166,550	3,231	0,062
166,600	3,236	0,061
166,650	3,242	0,062
166,700	3,253	0,061
166,750	3,270	0,062
166,800	3,277	0,061
166,850	3,278	0,062
166,900	3,281	0,062
166,950	3,293	0,062
167,000	3,295	0,062
167,050	3,297	0,062
167,100	3,306	0,062
167,150	3,306	0,062
167,200	3,306	0,062
167,250	3,317	0,062
167,300	3,318	0,061
167,350	3,318	0,062
167,400	3,318	0,062
167,450	3,319	0,062
167,500	3,319	0,062
167,550	3,318	0,062
167,600	3,318	0,062
167,650	3,318	0,062
167,700	3,318	0,061
167,750	3,322	0,062
167,800	3,328	0,062
167,850	3,331	0,063
167,900	3,331	0,062
167,950	3,336	0,063
168,000	3,349	0,062
168,050	3,358	0,063
168,100	3,358	0,062
168,150	3,358	0,063
168,200	3,359	0,062
168,250	3,363	0,063
168,300	3,368	0,062
168,350	3,407	0,062
168,400	3,429	0,062
168,450	3,430	0,063
168,500	3,430	0,062
168,550	3,430	0,063
168,600	3,430	0,062
168,650	3,429	0,063
168,700	3,429	0,062
168,750	3,430	0,063
168,800	3,430	0,062
168,850	3,430	0,063
168,900	3,430	0,062
168,950	3,431	0,062
169,000	3,440	0,062
169,050	3,440	0,063
169,100	3,440	0,062
169,150	3,440	0,063
169,200	3,441	0,062
169,250	3,442	0,063
169,300	3,451	0,062
169,350	3,456	0,063
169,400	3,462	0,062
169,450	3,470	0,063
169,500	3,479	0,062
169,550	3,491	0,063
169,600	3,492	0,062
169,650	3,493	0,063
169,700	3,492	0,062
169,750	3,492	0,063
169,800	3,493	0,062
169,850	3,501	0,063
169,900	3,501	0,062
169,950	3,501	0,063
170,000	3,501	0,062
170,050	3,501	0,063
170,100	3,506	0,062
170,150	3,511	0,063
170,200	3,521	0,062
170,250	3,522	0,063
170,300	3,523	0,063
170,350	3,523	0,063
170,400	3,523	0,062
170,450	3,523	0,063
170,500	3,523	0,062
170,550	3,522	0,063
170,600	3,523	0,062
170,650	3,530	0,063
170,700	3,539	0,063
170,750	3,548	0,063
170,800	3,550	0,063
170,850	3,551	0,063
170,900	3,558	0,062
170,950	3,561	0,063
171,000	3,563	0,062
171,050	3,562	0,063
171,100	3,562	0,062
171,150	3,562	0,063
171,200	3,564	0,063
171,250	3,568	0,064
171,300	3,568	0,063
171,350	3,568	0,063
171,400	3,568	0,063
171,450	3,569	0,064
171,500	3,571	0,063
171,550	3,583	0,064
171,600	3,585	0,062
171,650	3,585	0,063
171,700	3,585	0,063
171,750	3,585	0,063
171,800	3,585	0,063
171,850	3,589	0,064
171,900	3,592	0,063
171,950	3,598	0,064
172,000	3,598	0,063
172,050	3,599	0,064
172,100	3,601	0,063
172,150	3,603	0,064
172,200	3,607	0,063
172,250	3,611	0,064
172,300	3,612	0,063
172,350	3,613	0,064
172,400	3,616	0,063
172,450	3,617	0,064
172,500	3,617	0,063
172,550	3,617	0,064
172,600	3,617	0,063
172,650	3,618	0,064
172,700	3,622	0,063
172,750	3,626	0,064
172,800	3,626	0,063
172,850	3,630	0,064
172,900	3,634	0,063
172,950	3,635	0,064
173,000	3,638	0,063
173,050	3,647	0,064
173,100	3,651	0,063
173,150	3,652	0,064
173,200	3,654	0,063
173,250	3,659	0,064
173,300	3,665	0,063
173,350	3,665	0,064
173,400	3,665	0,063
173,450	3,672	0,064
173,500	3,679	0,063
173,550	3,680	0,065
173,600	3,689	0,064
173,650	3,693	0,065
173,700	3,693	0,064
173,750	3,695	0,065
173,800	3,702	0,064
173,850	3,706	0,065
173,900	3,706	0,064
173,950	3,713	0,065
174,000	3,721	0,063
174,050	3,746	0,064
174,100	3,763	0,063
174,150	3,763	0,064
174,200	3,763	0,063
174,250	3,763	0,064
174,300	3,763	0,063
174,350	3,763	0,065
174,400	3,763	0,063
174,450	3,763	0,064
174,500	3,763	0,063
174,550	3,764	0,065
174,600	3,763	0,063
174,650	3,763	0,065
174,700	3,764	0,064
174,750	3,776	0,065
174,800	3,776	0,063
174,850	3,777	0,065
174,900	3,782	0,064
174,950	3,787	0,065
175,000	3,790	0,064
175,050	3,790	0,065
175,100	3,790	0,064
175,150	3,790	0,065
175,200	3,799	0,064
175,250	3,814	0,065
175,300	3,822	0,064
175,350	3,822	0,065
175,400	3,822	0,064
175,450	3,828	0,065
175,500	3,838	0,064
175,550	3,839	0,065
175,600	3,839	0,064
175,650	3,839	0,065
175,700	3,839	0,064
175,750	3,847	0,065
175,800	3,849	0,064
175,850	3,850	0,065
175,900	3,851	0,064
175,950	3,860	0,065
176,000	3,874	0,064
176,050	3,879	0,065
176,100	3,879	0,064
176,150	3,882	0,065
176,200	3,888	0,064
176,250	3,888	0,065
176,300	3,890	0,064
176,350	3,892	0,065
176,400	3,893	0,064
176,450	3,893	0,065
176,500	3,893	0,064
176,550	3,893	0,065
176,600	3,893	0,064
176,650	3,893	0,065
176,700	3,893	0,064
176,750	3,893	0,065
176,800	3,903	0,064
176,850	3,921	0,065
176,900	3,936	0,064
176,950	3,968	0,065
177,000	4,011	0,064
177,050	4,022	0,065
177,100	4,022	0,064
177,150	4,022	0,065
177,200	4,022	0,064
177,250	4,022	0,065
177,300	4,022	0,064
177,350	4,022	0,065
177,400	4,022	0,064
177,450	4,022	0,065
177,500	4,022	0,064
177,550	4,022	0,065
177,600	4,023	0,064
177,650	4,023	0,065
177,700	4,026	0,064
177,750	4,043	0,065
177,800	4,063	0,064
177,850	4,063	0,065
177,900	4,063	0,064
177,950	4,063	0,065
178,000	4,064	0,064
178,050	4,079	0,065
178,100	4,088	0,064
178,150	4,093	0,066
178,200	4,111	0,065
178,250	4,114	0,065
178,300	4,124	0,064
178,350	4,126	0,065
178,400	4,127	0,064
178,450	4,129	0,065
178,500	4,129	0,064
178,550	4,131	0,066
178,600	4,139	0,065
178,650	4,144	0,066
178,700	4,151	0,064
178,750	4,163	0,066
178,800	4,170	0,065
178,850	4,173	0,066
178,900	4,173	0,064
178,950	4,173	0,066
179,000	4,173	0,065
179,050	4,173	0,066
179,100	4,173	0,064
179,150	4,173	0,066
179,200	4,174	0,064
179,250	4,186	0,066
179,300	4,188	0,064
179,350	4,191	0,065
179,400	4,195	0,065
179,450	4,196	0,066
179,500	4,198	0,065
179,550	4,204	0,065
179,600	4,217	0,065
179,650	4,226	0,065
179,700	4,227	0,065
179,750	4,227	0,066
179,800	4,227	0,065
179,850	4,228	0,066
179,900	4,233	0,065
179,950	4,233	0,066
180,000	4,233	0,065
180,050	4,235	0,066
180,100	4,248	0,065
180,150	4,251	0,066
180,200	4,254	0,065
180,250	4,258	0,066
180,300	4,258	0,065
180,350	4,258	0,066
180,400	4,258	0,065
180,450	4,258	0,066
180,500	4,258	0,065
180,550	4,258	0,066
180,600	4,258	0,065
180,650	4,256	0,066
180,700	4,254	0,065
180,750	4,256	0,066
180,800	4,260	0,065
180,850	4,271	0,066
180,900	4,271	0,065
180,950	4,275	0,066
181,000	4,285	0,065
181,050	4,285	0,066
181,100	4,285	0,065
181,150	4,285	0,066
181,200	4,285	0,065
181,250	4,285	0,066
181,300	4,297	0,065
181,350	4,298	0,066
181,400	4,298	0,065
181,450	4,298	0,066
181,500	4,299	0,065
181,550	4,298	0,066
181,600	4,298	0,065
181,650	4,309	0,066
181,700	4,334	0,065
181,750	4,339	0,066
181,800	4,339	0,065
181,850	4,338	0,066
181,900	4,339	0,065
181,950	4,339	0,066
182,000	4,339	0,065
182,050	4,339	0,066
182,100	4,339	0,065
182,150	4,348	0,066
182,200	4,363	0,065
182,250	4,365	0,066
182,300	4,365	0,065
182,350	4,365	0,066
182,400	4,365	0,065
182,450	4,365	0,066
182,500	4,365	0,065
182,550	4,365	0,066
182,600	4,376	0,065
182,650	4,381	0,066
182,700	4,394	0,065
182,750	4,394	0,066
182,800	4,394	0,065
182,850	4,394	0,067
182,900	4,400	0,065
182,950	4,411	0,067
183,000	4,414	0,066
183,050	4,422	0,067
183,100	4,435	0,065
183,150	4,435	0,066
183,200	4,436	0,066
183,250	4,435	0,066
183,300	4,440	0,065
183,350	4,449	0,067
183,400	4,450	0,065
183,450	4,468	0,066
183,500	4,471	0,065
183,550	4,471	0,067
183,600	4,483	0,065
183,650	4,488	0,066
183,700	4,489	0,066
183,750	4,489	0,066
183,800	4,488	0,065
183,850	4,489	0,066
183,900	4,488	0,065
183,950	4,500	0,066
184,000	4,531	0,065
184,050	4,551	0,066
184,100	4,551	0,065
184,150	4,551	0,066
184,200	4,551	0,065
184,250	4,551	0,066
184,300	4,551	0,065
184,350	4,551	0,066
184,400	4,551	0,066
184,450	4,551	0,066
184,500	4,551	0,065
184,550	4,555	0,067
184,600	4,561	0,066
184,650	4,583	0,066
184,700	4,591	0,065
184,750	4,609	0,066
184,800	4,640	0,065
184,850	4,644	0,066
184,900	4,652	0,065
184,950	4,658	0,066
185,000	4,658	0,066
185,050	4,658	0,066
185,100	4,658	0,065
185,150	4,658	0,067
185,200	4,658	0,066
185,250	4,658	0,067
185,300	4,658	0,066
185,350	4,658	0,067
185,400	4,658	0,066
185,450	4,658	0,067
185,500	4,658	0,066
185,550	4,693	0,067
185,600	4,702	0,066
185,650	4,705	0,067
185,700	4,721	0,066
185,750	4,724	0,067
185,800	4,724	0,066
185,850	4,724	0,067
185,900	4,730	0,066
185,950	4,739	0,067
186,000	4,754	0,066
186,050	4,758	0,067
186,100	4,761	0,066
186,150	4,777	0,067
186,200	4,790	0,066
186,250	4,792	0,067
186,300	4,799	0,066
186,350	4,824	0,067
186,400	4,840	0,066
186,450	4,863	0,067
186,500	4,891	0,065
186,550	4,899	0,066
186,600	4,900	0,065
186,650	4,903	0,067
186,700	4,913	0,065
186,750	4,913	0,067
186,800	4,913	0,066
186,850	4,917	0,067
186,900	4,917	0,066
186,950	4,917	0,067
187,000	4,924	0,066
187,050	4,930	0,066
187,100	4,940	0,066
187,150	4,944	0,067
187,200	4,944	0,066
187,250	4,944	0,067
187,300	4,944	0,066
187,350	4,952	0,067
187,400	4,957	0,066
187,450	4,963	0,067
187,500	4,971	0,066
187,550	4,971	0,067
187,600	4,973	0,066
187,650	4,988	0,067
187,700	5,005	0,066
187,750	5,007	0,067
187,800	5,008	0,066
187,850	5,010	0,067
187,900	5,010	0,066
187,950	5,011	0,067
188,000	5,019	0,066
188,050	5,020	0,067
188,100	5,020	0,066
188,150	5,027	0,067
188,200	5,028	0,066
188,250	5,028	0,067
188,300	5,030	0,066
188,350	5,051	0,067
188,400	5,063	0,066
188,450	5,064	0,067
188,500	5,065	0,066
188,550	5,081	0,067
188,600	5,099	0,066
188,650	5,104	0,067
188,700	5,104	0,066
188,750	5,125	0,067
188,800	5,140	0,066
188,850	5,142	0,067
188,900	5,145	0,066
188,950	5,146	0,067
189,000	5,155	0,066
189,050	5,162	0,067
189,100	5,172	0,066
189,150	5,172	0,067
189,200	5,176	0,066
189,250	5,177	0,067
189,300	5,179	0,066
189,350	5,188	0,067
189,400	5,190	0,066
189,450	5,189	0,067
189,500	5,191	0,066
189,550	5,203	0,067
189,600	5,204	0,066
189,650	5,210	0,067
189,700	5,222	0,066
189,750	5,229	0,067
189,800	5,247	0,066
189,850	5,252	0,067
189,900	5,268	0,066
189,950	5,272	0,067
190,000	5,275	0,066
190,050	5,281	0,067
190,100	5,296	0,066
190,150	5,302	0,067
190,200	5,302	0,066
190,250	5,302	0,067
190,300	5,308	0,066
190,350	5,315	0,067
190,400	5,315	0,066
190,450	5,323	0,067
190,500	5,333	0,066
190,550	5,337	0,067
190,600	5,337	0,066
190,650	5,337	0,067
190,700	5,337	0,066
190,750	5,338	0,068
190,800	5,338	0,067
190,850	5,338	0,068
190,900	5,338	0,067
190,950	5,338	0,068
191,000	5,338	0,067
191,050	5,338	0,068
191,100	5,345	0,067
191,150	5,365	0,068
191,200	5,382	0,067
191,250	5,382	0,068
191,300	5,382	0,067
191,350	5,391	0,068
191,400	5,400	0,067
191,450	5,409	0,068
191,500	5,413	0,066
191,550	5,425	0,068
191,600	5,432	0,067
191,650	5,439	0,068
191,700	5,444	0,067
191,750	5,444	0,068
191,800	5,452	0,067
191,850	5,453	0,068
191,900	5,454	0,067
191,950	5,455	0,068
192,000	5,458	0,067
192,050	5,457	0,068
192,100	5,457	0,067
192,150	5,460	0,068
192,200	5,471	0,067
192,250	5,471	0,068
192,300	5,471	0,067
192,350	5,471	0,068
192,400	5,471	0,067
192,450	5,472	0,068
192,500	5,471	0,067
192,550	5,472	0,068
192,600	5,471	0,067
192,650	5,472	0,068
192,700	5,471	0,067
192,750	5,472	0,068
192,800	5,472	0,067
192,850	5,472	0,068
192,900	5,480	0,067
192,950	5,489	0,068
193,000	5,489	0,067
193,050	5,492	0,068
193,100	5,494	0,067
193,150	5,503	0,068
193,200	5,515	0,067
193,250	5,524	0,068
193,300	5,525	0,067
193,350	5,526	0,068
193,400	5,530	0,067
193,450	5,532	0,068
193,500	5,543	0,067
193,550	5,558	0,068
193,600	5,567	0,067
193,650	5,567	0,068
193,700	5,567	0,067
193,750	5,567	0,068
193,800	5,568	0,067
193,850	5,577	0,068
193,900	5,584	0,067
193,950	5,596	0,069
194,000	5,611	0,067
194,050	5,622	0,068
194,100	5,626	0,067
194,150	5,650	0,068
194,200	5,659	0,067
194,250	5,659	0,068
194,300	5,659	0,067
194,350	5,659	0,068
194,400	5,659	0,067
194,450	5,659	0,068
194,500	5,659	0,067
194,550	5,659	0,069
194,600	5,659	0,067
194,650	5,661	0,068
194,700	5,676	0,067
194,750	5,709	0,068
194,800	5,737	0,067
194,850	5,756	0,068
194,900	5,757	0,067
194,950	5,757	0,068
195,000	5,758	0,067
195,050	5,761	0,068
195,100	5,795	0,067
195,150	5,815	0,069
195,200	5,815	0,067
195,250	5,818	0,068
195,300	5,827	0,067
195,350	5,828	0,068
195,400	5,828	0,067
195,450	5,828	0,068
195,500	5,828	0,067
195,550	5,828	0,068
195,600	5,829	0,067
195,650	5,829	0,068
195,700	5,830	0,067
195,750	5,838	0,068
195,800	5,872	0,067
195,850	5,882	0,068
195,900	5,883	0,067
195,950	5,886	0,069
196,000	5,900	0,068
196,050	5,925	0,068
196,100	5,927	0,067
196,150	5,939	0,068
196,200	5,953	0,067
196,250	5,957	0,068
196,300	5,969	0,067
196,350	5,999	0,068
196,400	6,016	0,068
196,450	6,016	0,068
196,500	6,017	0,067
196,550	6,016	0,068
196,600	6,016	0,067
196,650	6,016	0,068
196,700	6,017	0,067
196,750	6,019	0,068
196,800	6,025	0,067
196,850	6,036	0,068
196,900	6,037	0,067
196,950	6,038	0,069
197,000	6,039	0,067
197,050	6,042	0,068
197,100	6,054	0,067
197,150	6,064	0,069
197,200	6,073	0,067
197,250	6,086	0,069
197,300	6,101	0,068
197,350	6,114	0,069
197,400	6,122	0,068
197,450	6,123	0,069
197,500	6,132	0,068
197,550	6,146	0,069
197,600	6,149	0,067
197,650	6,153	0,069
197,700	6,162	0,068
197,750	6,167	0,069
197,800	6,170	0,068
197,850	6,186	0,069
197,900	6,194	0,068
197,950	6,199	0,069
198,000	6,202	0,067
198,050	6,214	0,069
198,100	6,224	0,067
198,150	6,230	0,069
198,200	6,241	0,068
198,250	6,262	0,068
198,300	6,267	0,068
198,350	6,274	0,068
198,400	6,279	0,068
198,450	6,279	0,069
198,500	6,279	0,067
198,550	6,283	0,069
198,600	6,283	0,068
198,650	6,284	0,069
198,700	6,284	0,068
198,750	6,284	0,069
198,800	6,300	0,068
198,850	6,310	0,069
198,900	6,311	0,068
198,950	6,310	0,069
199,000	6,310	0,068
199,050	6,310	0,069
199,100	6,310	0,068
199,150	6,310	0,069
199,200	6,309	0,068
199,250	6,308	0,069
199,300	6,308	0,068
199,350	6,308	0,069
199,400	6,318	0,068
199,450	6,336	0,069
199,500	6,371	0,067
199,550	6,409	0,069
199,600	6,425	0,068
199,650	6,427	0,069
199,700	6,426	0,068
199,750	6,426	0,069
199,800	6,426	0,068
199,850	6,426	0,069
199,900	6,426	0,068
199,950	6,426	0,069
200,000	6,430	0,068
200,050	6,431	0,069
200,100	6,431	0,068
200,150	6,430	0,069
200,200	6,440	0,068
200,250	6,453	0,069
200,300	6,457	0,068
200,350	6,464	0,069
200,400	6,471	0,068
200,450	6,477	0,069
200,500	6,498	0,068
200,550	6,507	0,069
200,600	6,509	0,068
200,650	6,525	0,069
200,700	6,539	0,068
200,750	6,545	0,069
200,800	6,550	0,068
200,850	6,559	0,069
200,900	6,580	0,068
200,950	6,590	0,069
201,000	6,591	0,068
201,050	6,591	0,069
201,100	6,592	0,068
201,150	6,592	0,069
201,200	6,592	0,068
201,250	6,606	0,069
201,300	6,627	0,068
201,350	6,631	0,069
201,400	6,631	0,068
201,450	6,632	0,069
201,500	6,637	0,068
201,550	6,651	0,069
201,600	6,659	0,068
201,650	6,664	0,069
201,700	6,665	0,068
201,750	6,666	0,069
201,800	6,667	0,068
201,850	6,668	0,069
201,900	6,668	0,068
201,950	6,668	0,069
202,000	6,668	0,068
202,050	6,668	0,069
202,100	6,668	0,068
202,150	6,668	0,069
202,200	6,668	0,068
202,250	6,668	0,069
202,300	6,668	0,068
202,350	6,669	0,069
202,400	6,668	0,068
202,450	6,668	0,069
202,500	6,668	0,068
202,550	6,660	0,069
202,600	6,654	0,068
202,650	6,654	0,070
202,700	6,654	0,068
202,750	6,654	0,070
202,800	6,654	0,068
202,850	6,654	0,069
202,900	6,653	0,068
202,950	6,654	0,069
203,000	6,653	0,068
203,050	6,654	0,069
203,100	6,654	0,068
203,150	6,645	0,070
203,200	6,605	0,069
203,250	6,578	0,070
203,300	6,576	0,068
203,350	6,576	0,070
203,400	6,575	0,069
203,450	6,576	0,070
203,500	6,575	0,069
203,550	6,576	0,070
203,600	6,576	0,069
203,650	6,575	0,070
203,700	6,576	0,069
203,750	6,575	0,070
203,800	6,575	0,069
203,850	6,575	0,070
203,900	6,575	0,069
203,950	6,575	0,070
204,000	6,575	0,069
204,050	6,574	0,070
204,100	6,573	0,069
204,150	6,571	0,070
204,200	6,567	0,069
204,250	6,566	0,070
204,300	6,566	0,069
204,350	6,561	0,070
204,400	6,550	0,069
204,450	6,542	0,070
204,500	6,539	0,069
204,550	6,539	0,070
204,600	6,539	0,069
204,650	6,539	0,071
204,700	6,532	0,069
204,750	6,530	0,071
204,800	6,530	0,069
204,850	6,525	0,071
204,900	6,517	0,070
204,950	6,516	0,070
205,000	6,517	0,070
205,050	6,517	0,071
205,100	6,516	0,069
205,150	6,516	0,071
205,200	6,516	0,070
205,250	6,517	0,071
205,300	6,517	0,070
205,350	6,517	0,071
205,400	6,517	0,070
205,450	6,517	0,071
205,500	6,517	0,070
205,550	6,516	0,071
205,600	6,516	0,070
205,650	6,516	0,071
205,700	6,516	0,070
205,750	6,509	0,071
205,800	6,507	0,070
205,850	6,504	0,071
205,900	6,498	0,070
205,950	6,496	0,071
206,000	6,494	0,070
206,050	6,494	0,071
206,100	6,494	0,070
206,150	6,494	0,071
206,200	6,494	0,070
206,250	6,494	0,071
206,300	6,494	0,070
206,350	6,493	0,071
206,400	6,489	0,070
206,450	6,485	0,071
206,500	6,485	0,070
206,550	6,485	0,071
206,600	6,485	0,071
206,650	6,485	0,071
206,700	6,485	0,070
206,750	6,485	0,072
206,800	6,482	0,071
206,850	6,466	0,072
206,900	6,461	0,070
206,950	6,459	0,072
207,000	6,458	0,070
207,050	6,458	0,072
207,100	6,458	0,071
207,150	6,458	0,072
207,200	6,458	0,071
207,250	6,458	0,072
207,300	6,458	0,071
207,350	6,458	0,072
207,400	6,458	0,071
207,450	6,458	0,072
207,500	6,458	0,071
207,550	6,458	0,072
207,600	6,458	0,071
207,650	6,457	0,072
207,700	6,442	0,071
207,750	6,436	0,072
207,800	6,431	0,071
207,850	6,420	0,072
207,900	6,416	0,071
207,950	6,406	0,072
208,000	6,401	0,071
208,050	6,401	0,073
208,100	6,401	0,071
208,150	6,400	0,072
208,200	6,401	0,071
208,250	6,401	0,073
208,300	6,400	0,071
208,350	6,401	0,073
208,400	6,401	0,071
208,450	6,401	0,073
208,500	6,401	0,072
208,550	6,400	0,073
208,600	6,400	0,072
208,650	6,400	0,073
208,700	6,400	0,072
208,750	6,384	0,073
208,800	6,351	0,072
208,850	6,335	0,073
208,900	6,333	0,072
208,950	6,333	0,073
209,000	6,333	0,072
209,050	6,333	0,073
209,100	6,333	0,072
209,150	6,333	0,073
209,200	6,333	0,072
209,250	6,333	0,073
209,300	6,333	0,072
209,350	6,333	0,073
209,400	6,333	0,072
209,450	6,332	0,073
209,500	6,333	0,072
209,550	6,332	0,073
209,600	6,330	0,072
209,650	6,323	0,073
209,700	6,320	0,072
209,750	6,311	0,074
209,800	6,306	0,072
209,850	6,300	0,073
209,900	6,297	0,072
209,950	6,297	0,074
210,000	6,297	0,073
210,050	6,297	0,074
210,100	6,297	0,073
210,150	6,297	0,073
210,200	6,297	0,072
210,250	6,297	0,073
210,300	6,297	0,073
210,350	6,298	0,074
210,400	6,297	0,072
210,450	6,297	0,074
210,500	6,298	0,073
210,550	6,297	0,074
210,600	6,296	0,073
210,650	6,294	0,074
210,700	6,293	0,073
210,750	6,280	0,074
210,800	6,264	0,073
210,850	6,257	0,074
210,900	6,257	0,073
210,950	6,257	0,074
211,000	6,257	0,073
211,050	6,257	0,074
211,100	6,257	0,073
211,150	6,256	0,074
211,200	6,257	0,073
211,250	6,257	0,074
211,300	6,255	0,073
211,350	6,253	0,074
211,400	6,253	0,073
211,450	6,251	0,074
211,500	6,237	0,073
211,550	6,230	0,074
211,600	6,230	0,073
211,650	6,230	0,074
211,700	6,230	0,073
211,750	6,230	0,074
211,800	6,230	0,073
211,850	6,230	0,074
211,900	6,230	0,073
211,950	6,227	0,075
212,000	6,216	0,073
212,050	6,212	0,075
212,100	6,210	0,074
212,150	6,209	0,075
212,200	6,209	0,074
212,250	6,209	0,075
212,300	6,208	0,074
212,350	6,207	0,075
212,400	6,203	0,074
212,450	6,200	0,075
212,500	6,196	0,074
212,550	6,192	0,075
212,600	6,181	0,074
212,650	6,169	0,075
212,700	6,167	0,074
212,750	6,163	0,075
212,800	6,163	0,074
212,850	6,163	0,075
212,900	6,163	0,074
212,950	6,163	0,075
213,000	6,163	0,074
213,050	6,163	0,075
213,100	6,163	0,074
213,150	6,163	0,075
213,200	6,163	0,074
213,250	6,163	0,075
213,300	6,163	0,074
213,350	6,162	0,075
213,400	6,162	0,074
213,450	6,162	0,075
213,500	6,161	0,074
213,550	6,161	0,075
213,600	6,159	0,074
213,650	6,158	0,075
213,700	6,158	0,074
213,750	6,155	0,075
213,800	6,154	0,074
213,850	6,152	0,076
213,900	6,150	0,074
213,950	6,146	0,075
214,000	6,142	0,075
214,050	6,135	0,076
214,100	6,128	0,074
214,150	6,124	0,076
214,200	6,122	0,074
214,250	6,121	0,076
214,300	6,118	0,074
214,350	6,116	0,076
214,400	6,106	0,075
214,450	6,096	0,076
214,500	6,087	0,075
214,550	6,087	0,076
214,600	6,087	0,075
214,650	6,087	0,076
214,700	6,086	0,075
214,750	6,087	0,076
214,800	6,087	0,075
214,850	6,086	0,076
214,900	6,086	0,075
214,950	6,086	0,076
215,000	6,087	0,075
215,050	6,086	0,076
215,100	6,084	0,075
215,150	6,084	0,076
215,200	6,079	0,075
215,250	6,065	0,076
215,300	6,061	0,075
215,350	6,060	0,076
215,400	6,060	0,075
215,450	6,060	0,076
215,500	6,060	0,075
215,550	6,060	0,076
215,600	6,060	0,075
215,650	6,060	0,076
215,700	6,054	0,075
215,750	6,044	0,077
215,800	6,038	0,076
215,850	6,034	0,076
215,900	6,030	0,075
215,950	6,029	0,076
216,000	6,029	0,076
216,050	6,025	0,076
216,100	6,025	0,075
216,150	6,025	0,076
216,200	6,025	0,076
216,250	6,022	0,076
216,300	6,020	0,076
216,350	6,015	0,077
216,400	6,009	0,076
216,450	6,007	0,077
216,500	6,007	0,076
216,550	6,007	0,077
216,600	6,007	0,076
216,650	6,007	0,077
216,700	6,007	0,076
216,750	6,004	0,077
216,800	6,000	0,076
216,850	5,993	0,077
216,900	5,987	0,076
216,950	5,984	0,077
217,000	5,984	0,076
217,050	5,984	0,077
217,100	5,984	0,076
217,150	5,976	0,077
217,200	5,971	0,076
217,250	5,971	0,077
217,300	5,971	0,076
217,350	5,971	0,077
217,400	5,971	0,076
217,450	5,971	0,077
217,500	5,971	0,076
217,550	5,971	0,077
217,600	5,969	0,076
217,650	5,960	0,077
217,700	5,946	0,076
217,750	5,933	0,077
217,800	5,927	0,077
217,850	5,927	0,078
217,900	5,927	0,077
217,950	5,927	0,078
218,000	5,927	0,077
218,050	5,926	0,077
218,100	5,927	0,077
218,150	5,927	0,077
218,200	5,927	0,077
218,250	5,925	0,078
218,300	5,925	0,077
218,350	5,924	0,078
218,400	5,923	0,077
218,450	5,923	0,078
218,500	5,924	0,077
218,550	5,921	0,078
218,600	5,911	0,077
218,650	5,906	0,078
218,700	5,905	0,077
218,750	5,905	0,078
218,800	5,905	0,077
218,850	5,905	0,078
218,900	5,905	0,077
218,950	5,905	0,078
219,000	5,905	0,077
219,050	5,905	0,078
219,100	5,905	0,077
219,150	5,905	0,078
219,200	5,904	0,077
219,250	5,905	0,078
219,300	5,905	0,078
219,350	5,905	0,078
219,400	5,900	0,078
219,450	5,883	0,078
219,500	5,873	0,078
219,550	5,873	0,078
219,600	5,873	0,078
219,650	5,873	0,078
219,700	5,873	0,078
219,750	5,868	0,078
219,800	5,848	0,078
219,850	5,833	0,078
219,900	5,829	0,078
219,950	5,826	0,078
220,000	5,810	0,078
220,050	5,806	0,079
220,100	5,805	0,078
220,150	5,804	0,079
220,200	5,803	0,078
220,250	5,803	0,078
220,300	5,800	0,078
220,350	5,789	0,079
220,400	5,788	0,078
220,450	5,783	0,079
220,500	5,780	0,078
220,550	5,774	0,079
220,600	5,761	0,078
220,650	5,758	0,079
220,700	5,757	0,078
220,750	5,757	0,079
220,800	5,757	0,078
220,850	5,757	0,079
220,900	5,757	0,078
220,950	5,757	0,079
221,000	5,757	0,079
221,050	5,757	0,079
221,100	5,757	0,079
221,150	5,757	0,079
221,200	5,757	0,079
221,250	5,757	0,079
221,300	5,757	0,079
221,350	5,751	0,079
221,400	5,743	0,079
221,450	5,743	0,079
221,500	5,742	0,079
221,550	5,742	0,079
221,600	5,742	0,079
221,650	5,737	0,080
221,700	5,736	0,079
221,750	5,735	0,079
221,800	5,734	0,079
221,850	5,727	0,080
221,900	5,726	0,079
221,950	5,726	0,080
222,000	5,726	0,079
222,050	5,724	0,080
222,100	5,703	0,079
222,150	5,673	0,080
222,200	5,660	0,080
222,250	5,653	0,080
222,300	5,648	0,080
222,350	5,647	0,080
222,400	5,647	0,080
222,450	5,645	0,080
222,500	5,639	0,079
222,550	5,637	0,080
222,600	5,637	0,080
222,650	5,637	0,080
222,700	5,637	0,080
222,750	5,637	0,080
222,800	5,637	0,080
222,850	5,637	0,080
222,900	5,637	0,080
222,950	5,637	0,080
223,000	5,633	0,080
223,050	5,621	0,081
223,100	5,617	0,080
223,150	5,616	0,081
223,200	5,615	0,080
223,250	5,615	0,081
223,300	5,615	0,080
223,350	5,616	0,081
223,400	5,615	0,080
223,450	5,616	0,081
223,500	5,616	0,080
223,550	5,614	0,081
223,600	5,611	0,080
223,650	5,608	0,081
223,700	5,600	0,080
223,750	5,595	0,081
223,800	5,592	0,080
223,850	5,593	0,081
223,900	5,593	0,081
223,950	5,593	0,081
224,000	5,592	0,080
224,050	5,593	0,081
224,100	5,592	0,081
224,150	5,591	0,081
224,200	5,588	0,081
224,250	5,588	0,081
224,300	5,588	0,081
224,350	5,588	0,081
224,400	5,588	0,081
224,450	5,588	0,081
224,500	5,587	0,081
224,550	5,569	0,081
224,600	5,558	0,081
224,650	5,557	0,082
224,700	5,556	0,081
224,750	5,557	0,082
224,800	5,557	0,081
224,850	5,557	0,081
224,900	5,557	0,081
224,950	5,550	0,082
225,000	5,547	0,081
225,050	5,540	0,082
225,100	5,537	0,082
225,150	5,524	0,082
225,200	5,517	0,081
225,250	5,517	0,082
225,300	5,516	0,081
225,350	5,516	0,082
225,400	5,516	0,081
225,450	5,516	0,082
225,500	5,516	0,082
225,550	5,516	0,082
225,600	5,515	0,082
225,650	5,508	0,082
225,700	5,507	0,082
225,750	5,499	0,082
225,800	5,491	0,082
225,850	5,485	0,082
225,900	5,479	0,082
225,950	5,469	0,082
226,000	5,467	0,082
226,050	5,467	0,082
226,100	5,467	0,081
226,150	5,467	0,082
226,200	5,467	0,082
226,250	5,467	0,082
226,300	5,467	0,082
226,350	5,467	0,082
226,400	5,467	0,082
226,450	5,467	0,082
226,500	5,467	0,082
226,550	5,467	0,082
226,600	5,467	0,082
226,650	5,467	0,082
226,700	5,467	0,082
226,750	5,463	0,083
226,800	5,457	0,082
226,850	5,438	0,082
226,900	5,402	0,082
226,950	5,382	0,083
227,000	5,382	0,082
227,050	5,367	0,083
227,100	5,349	0,083
227,150	5,347	0,083
227,200	5,346	0,082
227,250	5,346	0,083
227,300	5,336	0,082
227,350	5,333	0,083
227,400	5,333	0,083
227,450	5,332	0,083
227,500	5,329	0,083
227,550	5,313	0,083
227,600	5,311	0,083
227,650	5,311	0,083
227,700	5,311	0,083
227,750	5,307	0,083
227,800	5,275	0,083
227,850	5,245	0,084
227,900	5,233	0,083
227,950	5,231	0,084
228,000	5,231	0,083
228,050	5,231	0,084
228,100	5,231	0,083
228,150	5,231	0,084
228,200	5,224	0,083
228,250	5,208	0,084
228,300	5,197	0,084
228,350	5,196	0,084
228,400	5,196	0,084
228,450	5,195	0,084
228,500	5,195	0,084
228,550	5,187	0,084
228,600	5,180	0,084
228,650	5,164	0,084
228,700	5,159	0,084
228,750	5,159	0,084
228,800	5,158	0,084
228,850	5,158	0,084
228,900	5,152	0,084
228,950	5,145	0,085
229,000	5,145	0,084
229,050	5,139	0,084
229,100	5,137	0,084
229,150	5,134	0,084
229,200	5,133	0,084
229,250	5,132	0,085
229,300	5,132	0,084
229,350	5,132	0,085
229,400	5,132	0,084
229,450	5,132	0,084
229,500	5,132	0,084
229,550	5,132	0,085
229,600	5,131	0,084
229,650	5,127	0,085
229,700	5,123	0,084
229,750	5,118	0,085
229,800	5,084	0,085
229,850	5,048	0,085
229,900	5,042	0,084
229,950	5,043	0,085
230,000	5,042	0,084
230,050	5,042	0,085
230,100	5,042	0,085
230,150	5,042	0,085
230,200	5,024	0,085
230,250	5,015	0,085
230,300	5,015	0,084
230,350	5,015	0,085
230,400	5,015	0,085
230,450	5,006	0,086
230,500	4,966	0,085
230,550	4,945	0,086
230,600	4,944	0,085
230,650	4,944	0,086
230,700	4,944	0,085
230,750	4,944	0,086
230,800	4,945	0,085
230,850	4,935	0,086
230,900	4,922	0,085
230,950	4,921	0,086
231,000	4,897	0,085
231,050	4,891	0,086
231,100	4,891	0,085
231,150	4,879	0,086
231,200	4,861	0,086
231,250	4,859	0,086
231,300	4,855	0,086
231,350	4,843	0,086
231,400	4,842	0,086
231,450	4,842	0,086
231,500	4,829	0,086
231,550	4,816	0,086
231,600	4,802	0,086
231,650	4,782	0,086
231,700	4,775	0,086
231,750	4,775	0,087
231,800	4,775	0,086
231,850	4,766	0,086
231,900	4,761	0,086
231,950	4,761	0,087
232,000	4,750	0,086
232,050	4,728	0,087
232,100	4,725	0,086
232,150	4,725	0,087
232,200	4,725	0,087
232,250	4,725	0,087
232,300	4,725	0,087
232,350	4,712	0,087
232,400	4,683	0,086
232,450	4,675	0,088
232,500	4,663	0,087
232,550	4,663	0,087
232,600	4,663	0,087
232,650	4,663	0,088
232,700	4,663	0,087
232,750	4,650	0,087
232,800	4,645	0,087
232,850	4,645	0,087
232,900	4,645	0,087
232,950	4,640	0,087
233,000	4,637	0,087
233,050	4,636	0,088
233,100	4,636	0,087
233,150	4,636	0,088
233,200	4,636	0,087
233,250	4,636	0,088
233,300	4,631	0,087
233,350	4,621	0,088
233,400	4,615	0,088
233,450	4,610	0,088
233,500	4,606	0,087
233,550	4,601	0,088
233,600	4,593	0,088
233,650	4,592	0,088
233,700	4,591	0,087
233,750	4,580	0,088
233,800	4,579	0,088
233,850	4,578	0,088
233,900	4,570	0,088
233,950	4,569	0,088
234,000	4,569	0,088
234,050	4,559	0,088
234,100	4,551	0,088
234,150	4,552	0,089
234,200	4,551	0,088
234,250	4,552	0,089
234,300	4,546	0,088
234,350	4,542	0,089
234,400	4,539	0,088
234,450	4,538	0,088
234,500	4,538	0,088
234,550	4,533	0,089
234,600	4,521	0,088
234,650	4,521	0,089
234,700	4,520	0,088
234,750	4,520	0,089
234,800	4,521	0,088
234,850	4,521	0,089
234,900	4,521	0,089
234,950	4,520	0,089
235,000	4,521	0,088
235,050	4,520	0,089
235,100	4,521	0,088
235,150	4,520	0,089
235,200	4,520	0,088
235,250	4,520	0,089
235,300	4,520	0,088
235,350	4,520	0,089
235,400	4,506	0,088
235,450	4,494	0,089
235,500	4,486	0,088
235,550	4,453	0,090
235,600	4,428	0,089
235,650	4,427	0,090
235,700	4,427	0,089
235,750	4,427	0,089
235,800	4,427	0,089
235,850	4,427	0,089
235,900	4,427	0,089
235,950	4,427	0,090
236,000	4,427	0,089
236,050	4,419	0,090
236,100	4,402	0,089
236,150	4,388	0,090
236,200	4,379	0,089
236,250	4,379	0,090
236,300	4,378	0,089
236,350	4,377	0,090
236,400	4,377	0,089
236,450	4,369	0,090
236,500	4,365	0,089
236,550	4,353	0,090
236,600	4,348	0,089
236,650	4,330	0,090
236,700	4,323	0,090
236,750	4,317	0,090
236,800	4,317	0,090
236,850	4,317	0,090
236,900	4,317	0,089
236,950	4,313	0,090
237,000	4,300	0,090
237,050	4,299	0,090
237,100	4,299	0,090
237,150	4,299	0,090
237,200	4,299	0,090
237,250	4,299	0,090
237,300	4,299	0,090
237,350	4,300	0,091
237,400	4,300	0,090
237,450	4,303	0,090
237,500	4,300	0,090
237,550	4,295	0,091
237,600	4,294	0,090
237,650	4,295	0,091
237,700	4,308	0,090
237,750	4,316	0,091
237,800	4,316	0,090
237,850	4,316	0,091
237,900	4,316	0,090
237,950	4,316	0,090
238,000	4,316	0,090
238,050	4,316	0,091
238,100	4,318	0,090
238,150	4,304	0,091
238,200	4,290	0,090
238,250	4,290	0,091
238,300	4,290	0,090
238,350	4,290	0,091
238,400	4,290	0,090
238,450	4,280	0,091
238,500	4,268	0,091
238,550	4,257	0,091
238,600	4,246	0,091
238,650	4,244	0,091
238,700	4,239	0,091
238,750	4,236	0,091
238,800	4,226	0,091
238,850	4,216	0,091
238,900	4,214	0,091
238,950	4,212	0,091
239,000	4,206	0,091
239,050	4,204	0,092
239,100	4,200	0,091
239,150	4,186	0,092
239,200	4,183	0,091
239,250	4,183	0,092
239,300	4,183	0,091
239,350	4,183	0,092
239,400	4,183	0,091
239,450	4,179	0,092
239,500	4,170	0,091
239,550	4,162	0,092
239,600	4,161	0,092
239,650	4,157	0,092
239,700	4,146	0,091
239,750	4,129	0,092
239,800	4,118	0,091
239,850	4,117	0,092
239,900	4,116	0,091
239,950	4,116	0,092
240,000	4,111	0,092
240,050	4,102	0,092
240,100	4,096	0,091
240,150	4,094	0,092
240,200	4,094	0,092
240,250	4,094	0,092
240,300	4,094	0,091
240,350	4,094	0,092
240,400	4,094	0,092
240,450	4,092	0,092
240,500	4,081	0,091
240,550	4,073	0,092
240,600	4,072	0,092
240,650	4,072	0,092
240,700	4,071	0,092
240,750	4,070	0,092
240,800	4,070	0,092
240,850	4,068	0,093
240,900	4,064	0,092
240,950	4,059	0,093
241,000	4,059	0,092
241,050	4,057	0,093
241,100	4,050	0,092
241,150	4,040	0,093
241,200	4,029	0,092
241,250	4,018	0,093
241,300	4,006	0,092
241,350	4,000	0,093
241,400	3,994	0,092
241,450	3,988	0,093
241,500	3,984	0,092
241,550	3,979	0,093
241,600	3,977	0,092
241,650	3,974	0,093
241,700	3,974	0,093
241,750	3,974	0,093
241,800	3,971	0,093
241,850	3,965	0,093
241,900	3,962	0,093
241,950	3,954	0,093
242,000	3,951	0,093
242,050	3,947	0,093
242,100	3,942	0,093
242,150	3,939	0,094
242,200	3,938	0,093
242,250	3,931	0,094
242,300	3,925	0,093
242,350	3,925	0,094
242,400	3,914	0,093
242,450	3,898	0,094
242,500	3,885	0,093
242,550	3,876	0,094
242,600	3,875	0,093
242,650	3,875	0,094
242,700	3,866	0,093
242,750	3,861	0,094
242,800	3,859	0,093
242,850	3,858	0,094
242,900	3,858	0,093
242,950	3,858	0,094
243,000	3,855	0,093
243,050	3,844	0,094
243,100	3,840	0,094
243,150	3,836	0,094
243,200	3,831	0,093
243,250	3,828	0,094
243,300	3,822	0,093
243,350	3,814	0,094
243,400	3,809	0,094
243,450	3,808	0,094
243,500	3,807	0,094
243,550	3,800	0,095
243,600	3,785	0,093
243,650	3,776	0,095
243,700	3,766	0,094
243,750	3,745	0,095
243,800	3,723	0,094
243,850	3,705	0,095
243,900	3,698	0,094
243,950	3,698	0,095
244,000	3,698	0,094
244,050	3,698	0,095
244,100	3,694	0,094
244,150	3,682	0,095
244,200	3,676	0,094
244,250	3,675	0,095
244,300	3,670	0,095
244,350	3,650	0,095
244,400	3,636	0,095
244,450	3,630	0,095
244,500	3,631	0,095
244,550	3,630	0,096
244,600	3,630	0,095
244,650	3,631	0,096
244,700	3,630	0,095
244,750	3,630	0,095
244,800	3,630	0,095
244,850	3,618	0,095
244,900	3,574	0,095
244,950	3,547	0,096
245,000	3,539	0,095
245,050	3,528	0,096
245,100	3,517	0,095
245,150	3,510	0,096
245,200	3,510	0,095
245,250	3,510	0,096
245,300	3,510	0,095
245,350	3,510	0,096
245,400	3,510	0,095
245,450	3,503	0,096
245,500	3,501	0,096
245,550	3,501	0,096
245,600	3,500	0,095
245,650	3,464	0,096
245,700	3,443	0,095
245,750	3,438	0,096
245,800	3,426	0,096
245,850	3,426	0,096
245,900	3,426	0,096
245,950	3,426	0,096
246,000	3,426	0,096
246,050	3,394	0,096
246,100	3,343	0,096
246,150	3,337	0,097
246,200	3,337	0,096
246,250	3,336	0,097
246,300	3,336	0,096
246,350	3,336	0,097
246,400	3,336	0,096
246,450	3,336	0,097
246,500	3,336	0,096
246,550	3,337	0,097
246,600	3,336	0,096
246,650	3,292	0,097
246,700	3,273	0,096
246,750	3,269	0,097
246,800	3,258	0,097
246,850	3,256	0,097
246,900	3,244	0,097
246,950	3,219	0,097
247,000	3,204	0,097
247,050	3,191	0,098
247,100	3,189	0,097
247,150	3,173	0,098
247,200	3,154	0,097
247,250	3,154	0,098
247,300	3,154	0,097
247,350	3,145	0,098
247,400	3,107	0,098
247,450	3,086	0,098
247,500	3,083	0,098
247,550	3,083	0,098
247,600	3,063	0,097
247,650	3,044	0,098
247,700	3,043	0,098
247,750	3,043	0,098
247,800	3,043	0,098
247,850	3,043	0,098
247,900	3,043	0,098
247,950	3,043	0,099
248,000	3,043	0,098
248,050	3,043	0,099
248,100	3,007	0,098
248,150	2,977	0,099
248,200	2,976	0,098
248,250	2,965	0,099
248,300	2,948	0,098
248,350	2,930	0,099
248,400	2,911	0,098
248,450	2,904	0,099
248,500	2,902	0,099
248,550	2,901	0,099
248,600	2,881	0,099
248,650	2,862	0,099
248,700	2,861	0,098
248,750	2,854	0,100
248,800	2,849	0,099
248,850	2,842	0,100
248,900	2,834	0,099
248,950	2,822	0,100
249,000	2,807	0,099
249,050	2,803	0,100
249,100	2,784	0,099
249,150	2,777	0,100
249,200	2,772	0,098
249,250	2,764	0,100
249,300	2,759	0,099
249,350	2,759	0,100
249,400	2,759	0,099
249,450	2,749	0,100
249,500	2,742	0,099
249,550	2,739	0,100
249,600	2,728	0,099
249,650	2,724	0,100
249,700	2,722	0,099
249,750	2,714	0,100
249,800	2,706	0,100
249,850	2,701	0,100
249,900	2,689	0,099
249,950	2,684	0,100
250,000	2,684	0,100
250,050	2,679	0,100
250,100	2,677	0,099
250,150	2,675	0,100
250,200	2,675	0,100
250,250	2,675	0,100
250,300	2,675	0,100
250,350	2,666	0,100
250,400	2,662	0,099
250,450	2,661	0,100
250,500	2,657	0,100
250,550	2,652	0,101
250,600	2,642	0,100
250,650	2,640	0,101
250,700	2,639	0,100
250,750	2,639	0,101
250,800	2,624	0,100
250,850	2,613	0,101
250,900	2,607	0,100
250,950	2,598	0,101
251,000	2,589	0,100
251,050	2,579	0,101
251,100	2,563	0,100
251,150	2,546	0,101
251,200	2,542	0,100
251,250	2,527	0,101
251,300	2,522	0,100
251,350	2,520	0,101
251,400	2,514	0,100
251,450	2,508	0,102
251,500	2,505	0,101
251,550	2,504	0,101
251,600	2,501	0,100
251,650	2,501	0,101
251,700	2,498	0,101
251,750	2,497	0,102
251,800	2,497	0,101
251,850	2,497	0,102
251,900	2,497	0,101
251,950	2,497	0,102
252,000	2,497	0,101
252,050	2,497	0,102
252,100	2,497	0,101
252,150	2,496	0,102
252,200	2,494	0,101
252,250	2,493	0,102
252,300	2,492	0,101
252,350	2,481	0,102
252,400	2,475	0,101
252,450	2,472	0,102
252,500	2,466	0,101
252,550	2,465	0,102
252,600	2,466	0,101
252,650	2,464	0,102
252,700	2,434	0,101
252,750	2,402	0,102
252,800	2,377	0,101
252,850	2,351	0,102
252,900	2,349	0,102
252,950	2,339	0,102
253,000	2,313	0,101
253,050	2,280	0,103
253,100	2,261	0,102
253,150	2,260	0,103
253,200	2,259	0,102
253,250	2,246	0,102
253,300	2,240	0,102
253,350	2,238	0,103
253,400	2,234	0,102
253,450	2,228	0,103
253,500	2,225	0,102
253,550	2,225	0,103
253,600	2,224	0,102
253,650	2,224	0,103
253,700	2,224	0,102
253,750	2,224	0,103
253,800	2,224	0,102
253,850	2,224	0,103
253,900	2,220	0,102
253,950	2,214	0,103
254,000	2,211	0,102
254,050	2,211	0,103
254,100	2,211	0,103
254,150	2,211	0,103
254,200	2,206	0,103
254,250	2,200	0,103
254,300	2,187	0,102
254,350	2,181	0,103
254,400	2,181	0,103
254,450	2,178	0,103
254,500	2,176	0,103
254,550	2,174	0,103
254,600	2,166	0,103
254,650	2,160	0,104
254,700	2,157	0,103
254,750	2,145	0,104
254,800	2,135	0,103
254,850	2,130	0,103
254,900	2,121	0,103
254,950	2,105	0,103
255,000	2,099	0,103
255,050	2,096	0,104
255,100	2,095	0,103
255,150	2,088	0,104
255,200	2,075	0,103
255,250	2,071	0,104
255,300	2,068	0,103
255,350	2,065	0,104
255,400	2,062	0,103
255,450	2,059	0,104
255,500	2,060	0,103
255,550	2,059	0,104
255,600	2,059	0,103
255,650	2,059	0,104
255,700	2,059	0,103
255,750	2,059	0,104
255,800	2,059	0,103
255,850	2,059	0,104
255,900	2,052	0,103
255,950	2,037	0,104
256,000	2,014	0,103
256,050	2,002	0,104
256,100	2,001	0,104
256,150	2,000	0,105
256,200	1,986	0,104
256,250	1,982	0,104
256,300	1,979	0,104
256,350	1,979	0,104
256,400	1,973	0,104
256,450	1,964	0,104
256,500	1,954	0,104
256,550	1,948	0,105
256,600	1,946	0,104
256,650	1,943	0,105
256,700	1,935	0,104
256,750	1,927	0,105
256,800	1,918	0,104
256,850	1,898	0,105
256,900	1,883	0,104
256,950	1,881	0,105
257,000	1,881	0,105
257,050	1,881	0,105
257,100	1,881	0,104
257,150	1,881	0,105
257,200	1,881	0,105
257,250	1,881	0,105
257,300	1,881	0,105
257,350	1,881	0,105
257,400	1,877	0,104
257,450	1,847	0,105
257,500	1,845	0,105
257,550	1,846	0,106
257,600	1,846	0,105
257,650	1,844	0,106
257,700	1,836	0,105
257,750	1,823	0,106
257,800	1,802	0,105
257,850	1,783	0,106
257,900	1,774	0,105
257,950	1,774	0,105
258,000	1,770	0,105
258,050	1,765	0,106
258,100	1,757	0,105
258,150	1,744	0,106
258,200	1,736	0,105
258,250	1,707	0,106
258,300	1,682	0,106
258,350	1,672	0,106
258,400	1,672	0,106
258,450	1,659	0,106
258,500	1,654	0,106
258,550	1,654	0,106
258,600	1,654	0,106
258,650	1,649	0,106
258,700	1,646	0,106
258,750	1,641	0,106
258,800	1,639	0,106
258,850	1,638	0,106
258,900	1,639	0,106
258,950	1,639	0,107
259,000	1,639	0,106
259,050	1,639	0,106
259,100	1,637	0,106
259,150	1,638	0,106
259,200	1,638	0,107
259,250	1,637	0,107
259,300	1,631	0,106
259,350	1,618	0,107
259,400	1,613	0,106
259,450	1,614	0,107
259,500	1,614	0,107
259,550	1,613	0,107
259,600	1,613	0,106
259,650	1,605	0,107
259,700	1,596	0,107
259,750	1,595	0,107
259,800	1,595	0,107
259,850	1,595	0,107
259,900	1,585	0,107
259,950	1,574	0,107
260,000	1,573	0,107
260,050	1,565	0,107
260,100	1,563	0,107
260,150	1,561	0,107
260,200	1,561	0,107
260,250	1,561	0,107
260,300	1,561	0,107
260,350	1,561	0,107
260,400	1,560	0,107
260,450	1,561	0,107
260,500	1,561	0,107
260,550	1,561	0,108
260,600	1,560	0,107
260,650	1,560	0,107
260,700	1,558	0,107
260,750	1,558	0,107
260,800	1,558	0,107
260,850	1,558	0,107
260,900	1,557	0,107
260,950	1,558	0,108
261,000	1,531	0,107
261,050	1,508	0,108
261,100	1,499	0,108
261,150	1,498	0,107
261,200	1,487	0,108
261,250	1,447	0,108
261,300	1,398	0,108
261,350	1,373	0,108
261,400	1,364	0,108
261,450	1,341	0,108
261,500	1,321	0,108
261,550	1,319	0,108
261,600	1,320	0,108
261,650	1,320	0,108
261,700	1,313	0,108
261,750	1,292	0,108
261,800	1,277	0,109
261,850	1,269	0,108
261,900	1,247	0,108
261,950	1,208	0,109
262,000	1,178	0,109
262,050	1,173	0,109
262,100	1,174	0,109
262,150	1,168	0,109
262,200	1,154	0,109
262,250	1,139	0,109
262,300	1,138	0,109
262,350	1,138	0,109
262,400	1,138	0,109
262,450	1,139	0,109
262,500	1,138	0,109
262,550	1,138	0,109
262,600	1,138	0,109
262,650	1,138	0,109
262,700	1,137	0,109
262,750	1,125	0,109
262,800	1,123	0,109
262,850	1,116	0,109
262,900	1,106	0,110
262,950	1,091	0,109
263,000	1,085	0,110
263,050	1,085	0,110
263,100	1,084	0,109
263,150	1,084	0,109
263,200	1,084	0,109
263,250	1,085	0,110
263,300	1,084	0,110
263,350	1,079	0,109
263,400	1,071	0,109
263,450	1,066	0,109
263,500	1,058	0,110
263,550	1,058	0,110
263,600	1,051	0,110
263,650	1,049	0,110
263,700	1,047	0,110
263,750	1,034	0,110
263,800	1,028	0,110
263,850	1,014	0,110
263,900	1,008	0,110
263,950	1,006	0,110
264,000	0,999	0,110
264,050	0,990	0,110
264,100	0,974	0,110
264,150	0,959	0,110
264,200	0,948	0,110
264,250	0,936	0,110
264,300	0,931	0,110
264,350	0,919	0,110
264,400	0,908	0,111
264,450	0,907	0,110
264,500	0,907	0,111
264,550	0,907	0,111
264,600	0,907	0,111
264,650	0,907	0,111
264,700	0,907	0,111
264,750	0,907	0,110
264,800	0,907	0,110
264,850	0,907	0,111
264,900	0,907	0,111
264,950	0,907	0,111
265,000	0,907	0,111
265,050	0,907	0,111
265,100	0,907	0,111
265,150	0,908	0,111
265,200	0,907	0,111
265,250	0,894	0,111
265,300	0,864	0,111
265,350	0,840	0,111
265,400	0,829	0,111
265,450	0,822	0,111
265,500	0,820	0,111
265,550	0,804	0,112
265,600	0,787	0,111
265,650	0,786	0,111
265,700	0,770	0,111
265,750	0,759	0,112
265,800	0,751	0,111
265,850	0,751	0,111
265,900	0,750	0,112
265,950	0,749	0,111
266,000	0,732	0,112
266,050	0,707	0,112
266,100	0,699	0,112
266,150	0,697	0,111
266,200	0,684	0,112
266,250	0,668	0,112
266,300	0,647	0,112
266,350	0,616	0,112
266,400	0,581	0,112
266,450	0,562	0,113
266,500	0,551	0,112
266,550	0,550	0,112
266,600	0,551	0,112
266,650	0,540	0,112
266,700	0,537	0,113
266,750	0,536	0,112
266,800	0,527	0,113
266,850	0,515	0,112
266,900	0,507	0,113
266,950	0,507	0,112
267,000	0,507	0,113
267,050	0,507	0,112
267,100	0,507	0,113
267,150	0,507	0,113
267,200	0,507	0,113
267,250	0,507	0,113
267,300	0,507	0,113
267,350	0,507	0,113
267,400	0,507	0,113
267,450	0,507	0,113
267,500	0,507	0,113
267,550	0,507	0,113
267,600	0,507	0,113
267,650	0,507	0,113
267,700	0,507	0,113
267,750	0,507	0,113
267,800	0,507	0,114
267,850	0,507	0,113
267,900	0,507	0,113
267,950	0,498	0,113
268,000	0,473	0,113
268,050	0,444	0,113
268,100	0,431	0,114
268,150	0,431	0,113
268,200	0,431	0,113
268,250	0,431	0,113
268,300	0,421	0,114
268,350	0,410	0,113
268,400	0,400	0,114
268,450	0,400	0,113
268,500	0,400	0,114
268,550	0,400	0,113
268,600	0,400	0,114
268,650	0,400	0,113
268,700	0,400	0,114
268,750	0,400	0,113
268,800	0,400	0,114
268,850	0,391	0,114
268,900	0,387	0,114
268,950	0,387	0,114
269,000	0,387	0,114
269,050	0,386	0,113
269,100	0,381	0,114
269,150	0,371	0,114
269,200	0,360	0,114
269,250	0,353	0,114
269,300	0,351	0,114
269,350	0,350	0,114
269,400	0,337	0,114
269,450	0,330	0,114
269,500	0,313	0,114
269,550	0,307	0,114
269,600	0,307	0,114
269,650	0,307	0,114
269,700	0,307	0,114
269,750	0,307	0,114
269,800	0,307	0,115
269,850	0,299	0,114
269,900	0,292	0,115
269,950	0,287	0,115
270,000	0,284	0,114
270,050	0,277	0,114
270,100	0,275	0,115
270,150	0,263	0,114
270,200	0,259	0,115
270,250	0,256	0,115
270,300	0,240	0,115
270,350	0,229	0,114
270,400	0,228	0,115
270,450	0,228	0,115
270,500	0,220	0,115
270,550	0,195	0,115
270,600	0,168	0,115
270,650	0,151	0,115
270,700	0,136	0,115
270,750	0,126	0,115
270,800	0,117	0,116
270,850	0,096	0,115
270,900	0,082	0,116
270,950	0,082	0,115
271,000	0,082	0,115
271,050	0,082	0,115
271,100	0,082	0,116
271,150	0,082	0,115
271,200	0,082	0,116
271,250	0,082	0,115
271,300	0,082	0,116
271,350	0,082	0,115
271,400	0,082	0,116
271,450	0,082	0,115
271,500	0,082	0,116
271,550	0,082	0,116
271,600	0,069	0,116
271,650	0,020	0,116
271,700	0,014	0,116
271,750	0,014	0,116
271,800	0,013	0,116
271,850	0,013	0,116
271,900	0,011	0,116
271,950	0,012	0,116
272,000	0,011	0,116
272,050	0,012	0,116
272,100	0,009	0,116
272,150	0,007	0,116
272,200	0,007	0,117
272,250	0,007	0,116
272,300	0,007	0,117
272,350	0,007	0,116
272,400	0,007	0,117
272,450	0,007	0,116
272,500	0,008	0,117
272,550	0,007	0,116
272,600	0,007	0,117
272,650	0,008	0,116
272,700	0,007	0,117
272,750	0,008	0,116
272,800	0,008	0,117
272,850	0,008	0,116
272,900	0,006	0,117
272,950	-0,006	0,116
273,000	-0,006	0,117
273,050	-0,006	0,116
273,100	-0,006	0,117
273,150	-0,006	0,116
273,200	-0,006	0,117
273,250	-0,005	0,117
273,300	-0,006	0,117
273,350	-0,005	0,117
273,400	-0,005	0,117
273,450	-0,005	0,117
273,500	-0,005	0,117
273,550	-0,005	0,117
273,600	-0,009	0,117
273,650	-0,009	0,117
273,700	-0,011	0,117
273,750	-0,026	0,117
273,800	-0,032	0,117
273,850	-0,031	0,117
273,900	-0,031	0,118
273,950	-0,031	0,117
274,000	-0,032	0,118
274,050	-0,031	0,117
274,100	-0,031	0,118
274,150	-0,032	0,117
274,200	-0,036	0,118
274,250	-0,036	0,117
274,300	-0,036	0,118
274,350	-0,036	0,117
274,400	-0,036	0,118
274,450	-0,036	0,117
274,500	-0,050	0,118
274,550	-0,071	0,117
274,600	-0,088	0,118
274,650	-0,089	0,118
274,700	-0,098	0,118
274,750	-0,098	0,118
274,800	-0,098	0,118
274,850	-0,098	0,118
274,900	-0,099	0,118
274,950	-0,099	0,118
275,000	-0,102	0,118
275,050	-0,102	0,118
275,100	-0,104	0,118
275,150	-0,110	0,117
275,200	-0,111	0,119
275,250	-0,124	0,118
275,300	-0,145	0,119
275,350	-0,154	0,118
275,400	-0,162	0,119
275,450	-0,164	0,118
275,500	-0,164	0,118
275,550	-0,164	0,118
275,600	-0,164	0,118
275,650	-0,164	0,118
275,700	-0,168	0,119
275,750	-0,168	0,118
275,800	-0,168	0,119
275,850	-0,168	0,118
275,900	-0,168	0,119
275,950	-0,168	0,118
276,000	-0,168	0,119
276,050	-0,168	0,118
276,100	-0,168	0,119
276,150	-0,168	0,118
276,200	-0,168	0,119
276,250	-0,168	0,118
276,300	-0,170	0,119
276,350	-0,197	0,118
276,400	-0,222	0,119
276,450	-0,228	0,118
276,500	-0,239	0,119
276,550	-0,245	0,118
276,600	-0,252	0,119
276,650	-0,252	0,119
276,700	-0,258	0,119
276,750	-0,288	0,119
276,800	-0,334	0,119
276,850	-0,345	0,119
276,900	-0,345	0,120
276,950	-0,345	0,119
277,000	-0,344	0,120
277,050	-0,345	0,119
277,100	-0,345	0,119
277,150	-0,345	0,119
277,200	-0,345	0,119
277,250	-0,353	0,119
277,300	-0,361	0,119
277,350	-0,362	0,119
277,400	-0,362	0,119
277,450	-0,362	0,119
277,500	-0,363	0,120
277,550	-0,362	0,119
277,600	-0,363	0,119
277,650	-0,362	0,119
277,700	-0,372	0,120
277,750	-0,380	0,119
277,800	-0,381	0,120
277,850	-0,381	0,119
277,900	-0,389	0,120
277,950	-0,389	0,119
278,000	-0,390	0,120
278,050	-0,390	0,120
278,100	-0,391	0,120
278,150	-0,390	0,120
278,200	-0,392	0,120
278,250	-0,401	0,119
278,300	-0,411	0,120
278,350	-0,416	0,120
278,400	-0,416	0,120
278,450	-0,416	0,119
278,500	-0,416	0,120
278,550	-0,416	0,120
278,600	-0,419	0,120
278,650	-0,420	0,119
278,700	-0,422	0,120
278,750	-0,428	0,120
278,800	-0,429	0,120
278,850	-0,434	0,120
278,900	-0,443	0,120
278,950	-0,442	0,120
279,000	-0,444	0,120
279,050	-0,450	0,120
279,100	-0,459	0,121
279,150	-0,462	0,120
279,200	-0,470	0,121
279,250	-0,486	0,120
279,300	-0,493	0,121
279,350	-0,495	0,120
279,400	-0,495	0,121
279,450	-0,498	0,120
279,500	-0,510	0,121
279,550	-0,513	0,120
279,600	-0,513	0,121
279,650	-0,513	0,120
279,700	-0,513	0,121
279,750	-0,513	0,120
279,800	-0,513	0,121
279,850	-0,513	0,121
279,900	-0,513	0,121
279,950	-0,516	0,121
280,000	-0,513	0,121
280,050	-0,513	0,121
280,100	-0,513	0,121
280,150	-0,513	0,121
280,200	-0,513	0,121
280,250	-0,513	0,121
280,300	-0,513	0,121
280,350	-0,517	0,121
280,400	-0,518	0,121
280,450	-0,518	0,121
280,500	-0,518	0,122
280,550	-0,519	0,121
280,600	-0,533	0,121
280,650	-0,546	0,121
280,700	-0,549	0,122
280,750	-0,556	0,121
280,800	-0,565	0,122
280,850	-0,575	0,121
280,900	-0,584	0,122
280,950	-0,599	0,121
281,000	-0,609	0,121
281,050	-0,615	0,121
281,100	-0,624	0,122
281,150	-0,632	0,121
281,200	-0,639	0,122
281,250	-0,652	0,122
281,300	-0,662	0,122
281,350	-0,672	0,122
281,400	-0,684	0,122
281,450	-0,692	0,122
281,500	-0,698	0,122
281,550	-0,705	0,122
281,600	-0,714	0,122
281,650	-0,720	0,122
281,700	-0,722	0,122
281,750	-0,727	0,122
281,800	-0,734	0,123
281,850	-0,734	0,122
281,900	-0,743	0,122
281,950	-0,751	0,122
282,000	-0,756	0,123
282,050	-0,760	0,122
282,100	-0,761	0,123
282,150	-0,765	0,122
282,200	-0,766	0,123
282,250	-0,770	0,122
282,300	-0,775	0,122
282,350	-0,775	0,122
282,400	-0,774	0,123
282,450	-0,777	0,122
282,500	-0,779	0,123
282,550	-0,786	0,123
282,600	-0,791	0,123
282,650	-0,792	0,123
282,700	-0,796	0,123
282,750	-0,805	0,122
282,800	-0,820	0,123
282,850	-0,830	0,123
282,900	-0,846	0,123
282,950	-0,861	0,123
283,000	-0,874	0,123
283,050	-0,886	0,123
283,100	-0,891	0,123
283,150	-0,891	0,123
283,200	-0,893	0,123
283,250	-0,897	0,123
283,300	-0,904	0,123
283,350	-0,907	0,123
283,400	-0,913	0,123
283,450	-0,913	0,124
283,500	-0,913	0,124
283,550	-0,913	0,123
283,600	-0,924	0,123
283,650	-0,930	0,123
283,700	-0,936	0,123
283,750	-0,945	0,124
283,800	-0,953	0,124
283,850	-0,958	0,123
283,900	-0,962	0,124
283,950	-0,974	0,124
284,000	-0,994	0,124
284,050	-1,009	0,124
284,100	-1,015	0,124
284,150	-1,016	0,124
284,200	-1,019	0,124
284,250	-1,020	0,124
284,300	-1,023	0,124
284,350	-1,024	0,124
284,400	-1,024	0,124
284,450	-1,024	0,124
284,500	-1,024	0,124
284,550	-1,023	0,124
284,600	-1,024	0,124
284,650	-1,024	0,124
284,700	-1,024	0,124
284,750	-1,024	0,124
284,800	-1,025	0,124
284,850	-1,034	0,124
284,900	-1,053	0,124
284,950	-1,075	0,124
285,000	-1,100	0,124
285,050	-1,121	0,124
285,100	-1,140	0,125
285,150	-1,159	0,124
285,200	-1,164	0,125
285,250	-1,178	0,125
285,300	-1,181	0,125
285,350	-1,182	0,125
285,400	-1,196	0,124
285,450	-1,203	0,125
285,500	-1,203	0,125
285,550	-1,203	0,125
285,600	-1,203	0,125
285,650	-1,203	0,125
285,700	-1,203	0,125
285,750	-1,203	0,125
285,800	-1,202	0,125
285,850	-1,202	0,125
285,900	-1,202	0,125
285,950	-1,202	0,125
286,000	-1,202	0,125
286,050	-1,202	0,125
286,100	-1,204	0,125
286,150	-1,215	0,125
286,200	-1,247	0,125
286,250	-1,262	0,125
286,300	-1,291	0,125
286,350	-1,309	0,125
286,400	-1,325	0,126
286,450	-1,331	0,125
286,500	-1,348	0,126
286,550	-1,369	0,126
286,600	-1,386	0,125
286,650	-1,415	0,126
286,700	-1,446	0,126
286,750	-1,486	0,126
286,800	-1,509	0,126
286,850	-1,518	0,126
286,900	-1,528	0,126
286,950	-1,537	0,126
287,000	-1,543	0,126
287,050	-1,552	0,126
287,100	-1,557	0,126
287,150	-1,557	0,127
287,200	-1,563	0,126
287,250	-1,571	0,127
287,300	-1,579	0,126
287,350	-1,583	0,127
287,400	-1,591	0,127
287,450	-1,595	0,127
287,500	-1,608	0,127
287,550	-1,623	0,127
287,600	-1,632	0,127
287,650	-1,646	0,127
287,700	-1,661	0,127
287,750	-1,682	0,127
287,800	-1,697	0,127
287,850	-1,699	0,127
287,900	-1,699	0,127
287,950	-1,699	0,127
288,000	-1,699	0,127
288,050	-1,699	0,127
288,100	-1,700	0,127
288,150	-1,700	0,127
288,200	-1,700	0,127
288,250	-1,700	0,127
288,300	-1,700	0,127
288,350	-1,700	0,127
288,400	-1,699	0,127
288,450	-1,700	0,127
288,500	-1,699	0,127
288,550	-1,699	0,127
288,600	-1,700	0,127
288,650	-1,699	0,128
288,700	-1,699	0,128
288,750	-1,699	0,128
288,800	-1,699	0,127
288,850	-1,699	0,128
288,900	-1,699	0,127
288,950	-1,699	0,128
289,000	-1,699	0,127
289,050	-1,700	0,128
289,100	-1,719	0,128
289,150	-1,749	0,128
289,200	-1,774	0,128
289,250	-1,799	0,128
289,300	-1,825	0,128
289,350	-1,849	0,128
289,400	-1,861	0,128
289,450	-1,874	0,128
289,500	-1,887	0,128
289,550	-1,902	0,128
289,600	-1,915	0,128
289,650	-1,929	0,129
289,700	-1,935	0,128
289,750	-1,943	0,129
289,800	-1,954	0,128
289,850	-1,967	0,129
289,900	-1,972	0,128
289,950	-1,983	0,129
290,000	-1,993	0,129
290,050	-1,994	0,129
290,100	-1,997	0,129
290,150	-1,998	0,129
290,200	-2,009	0,129
290,250	-2,011	0,129
290,300	-2,013	0,129
290,350	-2,023	0,129
290,400	-2,033	0,129
290,450	-2,037	0,129
290,500	-2,041	0,129
290,550	-2,061	0,129
290,600	-2,076	0,129
290,650	-2,078	0,129
290,700	-2,079	0,129
290,750	-2,082	0,129
290,800	-2,091	0,129
290,850	-2,096	0,129
290,900	-2,097	0,129
290,950	-2,101	0,130
291,000	-2,107	0,129
291,050	-2,112	0,130
291,100	-2,117	0,129
291,150	-2,121	0,130
291,200	-2,124	0,129
291,250	-2,138	0,130
291,300	-2,146	0,129
291,350	-2,152	0,130
291,400	-2,161	0,129
291,450	-2,163	0,130
291,500	-2,163	0,130
291,550	-2,163	0,130
291,600	-2,163	0,130
291,650	-2,163	0,130
291,700	-2,163	0,130
291,750	-2,163	0,130
291,800	-2,163	0,130
291,850	-2,163	0,130
291,900	-2,163	0,130
291,950	-2,163	0,130
292,000	-2,184	0,130
292,050	-2,227	0,130
292,100	-2,233	0,130
292,150	-2,236	0,130
292,200	-2,238	0,130
292,250	-2,238	0,130
292,300	-2,238	0,130
292,350	-2,252	0,130
292,400	-2,257	0,130
292,450	-2,271	0,131
292,500	-2,274	0,130
292,550	-2,274	0,131
292,600	-2,281	0,130
292,650	-2,291	0,131
292,700	-2,293	0,130
292,750	-2,308	0,131
292,800	-2,322	0,130
292,850	-2,334	0,131
292,900	-2,349	0,131
292,950	-2,359	0,131
293,000	-2,368	0,131
293,050	-2,377	0,131
293,100	-2,377	0,131
293,150	-2,381	0,131
293,200	-2,397	0,131
293,250	-2,415	0,131
293,300	-2,422	0,131
293,350	-2,425	0,131
293,400	-2,440	0,131
293,450	-2,443	0,131
293,500	-2,445	0,131
293,550	-2,466	0,132
293,600	-2,476	0,131
293,650	-2,481	0,132
293,700	-2,493	0,132
293,750	-2,496	0,132
293,800	-2,497	0,131
293,850	-2,508	0,132
293,900	-2,509	0,132
293,950	-2,513	0,132
294,000	-2,522	0,131
294,050	-2,524	0,132
294,100	-2,524	0,132
294,150	-2,526	0,132
294,200	-2,527	0,131
294,250	-2,527	0,132
294,300	-2,527	0,132
294,350	-2,527	0,132
294,400	-2,527	0,132
294,450	-2,527	0,132
294,500	-2,527	0,131
294,550	-2,527	0,132
294,600	-2,527	0,132
294,650	-2,529	0,132
294,700	-2,544	0,132
294,750	-2,586	0,132
294,800	-2,615	0,132
294,850	-2,635	0,132
294,900	-2,667	0,132
294,950	-2,708	0,133
295,000	-2,733	0,132
295,050	-2,749	0,133
295,100	-2,755	0,133
295,150	-2,767	0,133
295,200	-2,771	0,133
295,250	-2,774	0,133
295,300	-2,779	0,133
295,350	-2,781	0,133
295,400	-2,781	0,133
295,450	-2,790	0,133
295,500	-2,795	0,132
295,550	-2,804	0,133
295,600	-2,805	0,133
295,650	-2,805	0,133
295,700	-2,807	0,132
295,750	-2,816	0,133
295,800	-2,817	0,133
295,850	-2,817	0,133
295,900	-2,817	0,133
295,950	-2,826	0,133
296,000	-2,835	0,133
296,050	-2,835	0,134
296,100	-2,835	0,133
296,150	-2,836	0,134
296,200	-2,847	0,133
296,250	-2,852	0,134
296,300	-2,852	0,133
296,350	-2,852	0,134
296,400	-2,852	0,133
296,450	-2,856	0,134
296,500	-2,866	0,133
296,550	-2,866	0,134
296,600	-2,866	0,133
296,650	-2,865	0,134
296,700	-2,866	0,133
296,750	-2,865	0,134
296,800	-2,865	0,133
296,850	-2,865	0,134
296,900	-2,865	0,134
296,950	-2,865	0,134
297,000	-2,865	0,133
297,050	-2,865	0,134
297,100	-2,866	0,134
297,150	-2,867	0,134
297,200	-2,873	0,134
297,250	-2,882	0,134
297,300	-2,893	0,133
297,350	-2,897	0,134
297,400	-2,896	0,134
297,450	-2,897	0,134
297,500	-2,897	0,134
297,550	-2,897	0,134
297,600	-2,897	0,134
297,650	-2,897	0,134
297,700	-2,896	0,134
297,750	-2,897	0,134
297,800	-2,896	0,134
297,850	-2,897	0,134
297,900	-2,897	0,134
297,950	-2,897	0,134
298,000	-2,897	0,134
298,050	-2,915	0,135
298,100	-2,983	0,135
298,150	-3,010	0,135
298,200	-3,012	0,134
298,250	-3,012	0,135
298,300	-3,012	0,134
298,350	-3,012	0,135
298,400	-3,012	0,134
298,450	-3,012	0,135
298,500	-3,019	0,135
298,550	-3,028	0,135
298,600	-3,034	0,135
298,650	-3,038	0,135
298,700	-3,047	0,135
298,750	-3,048	0,135
298,800	-3,047	0,135
298,850	-3,047	0,135
298,900	-3,047	0,135
298,950	-3,047	0,135
299,000	-3,048	0,135
299,050	-3,048	0,135
299,100	-3,050	0,135
299,150	-3,062	0,135
299,200	-3,070	0,135
299,250	-3,070	0,135
299,300	-3,070	0,135
299,350	-3,070	0,135
299,400	-3,079	0,135
299,450	-3,087	0,136
299,500	-3,087	0,135
299,550	-3,088	0,136
299,600	-3,088	0,135
299,650	-3,088	0,136
299,700	-3,088	0,135
299,750	-3,089	0,135
299,800	-3,089	0,135
299,850	-3,098	0,136
299,900	-3,105	0,135
299,950	-3,111	0,136
300,000	-3,124	0,135
300,050	-3,133	0,136
300,100	-3,136	0,135
300,150	-3,145	0,136
300,200	-3,149	0,136
300,250	-3,155	0,136
300,300	-3,178	0,135
300,350	-3,196	0,136
300,400	-3,204	0,136
300,450	-3,214	0,136
300,500	-3,227	0,136
300,550	-3,229	0,136
300,600	-3,232	0,136
300,650	-3,242	0,136
300,700	-3,242	0,136
300,750	-3,244	0,136
300,800	-3,257	0,136
300,850	-3,260	0,137
300,900	-3,267	0,136
300,950	-3,273	0,137
301,000	-3,274	0,136
301,050	-3,276	0,137
301,100	-3,276	0,136
301,150	-3,274	0,137
301,200	-3,273	0,136
301,250	-3,274	0,136
301,300	-3,273	0,136
301,350	-3,274	0,137
301,400	-3,274	0,136
301,450	-3,280	0,137
301,500	-3,289	0,136
301,550	-3,303	0,137
301,600	-3,321	0,136
301,650	-3,331	0,137
301,700	-3,343	0,136
301,750	-3,360	0,137
301,800	-3,382	0,137
301,850	-3,396	0,137
301,900	-3,401	0,137
301,950	-3,404	0,137
302,000	-3,408	0,137
302,050	-3,409	0,137
302,100	-3,409	0,137
302,150	-3,413	0,137
302,200	-3,420	0,137
302,250	-3,420	0,138
302,300	-3,421	0,137
302,350	-3,420	0,138
302,400	-3,421	0,137
302,450	-3,421	0,137
302,500	-3,421	0,137
302,550	-3,421	0,137
302,600	-3,421	0,137
302,650	-3,421	0,138
302,700	-3,421	0,137
302,750	-3,421	0,137
302,800	-3,423	0,137
302,850	-3,428	0,138
302,900	-3,442	0,137
302,950	-3,456	0,137
303,000	-3,466	0,137
303,050	-3,482	0,138
303,100	-3,501	0,137
303,150	-3,517	0,138
303,200	-3,532	0,138
303,250	-3,553	0,138
303,300	-3,573	0,138
303,350	-3,583	0,138
303,400	-3,593	0,138
303,450	-3,596	0,138
303,500	-3,605	0,138
303,550	-3,608	0,138
303,600	-3,613	0,138
303,650	-3,617	0,138
303,700	-3,619	0,138
303,750	-3,626	0,138
303,800	-3,636	0,138
303,850	-3,644	0,139
303,900	-3,658	0,138
303,950	-3,665	0,139
304,000	-3,677	0,138
304,050	-3,685	0,139
304,100	-3,696	0,138
304,150	-3,704	0,139
304,200	-3,709	0,138
304,250	-3,717	0,139
304,300	-3,723	0,138
304,350	-3,728	0,139
304,400	-3,738	0,138
304,450	-3,754	0,139
304,500	-3,770	0,139
304,550	-3,771	0,139
304,600	-3,779	0,139
304,650	-3,781	0,139
304,700	-3,783	0,139
304,750	-3,798	0,140
304,800	-3,803	0,139
304,850	-3,807	0,139
304,900	-3,815	0,139
304,950	-3,824	0,140
305,000	-3,830	0,139
305,050	-3,832	0,139
305,100	-3,841	0,139
305,150	-3,851	0,139
305,200	-3,859	0,139
305,250	-3,861	0,140
305,300	-3,861	0,139
305,350	-3,861	0,140
305,400	-3,861	0,139
305,450	-3,862	0,140
305,500	-3,862	0,139
305,550	-3,862	0,140
305,600	-3,866	0,139
305,650	-3,866	0,140
305,700	-3,866	0,140
305,750	-3,866	0,140
305,800	-3,867	0,140
305,850	-3,887	0,140
305,900	-3,928	0,140
305,950	-3,955	0,140
306,000	-3,967	0,140
306,050	-3,968	0,140
306,100	-3,968	0,140
306,150	-3,968	0,140
306,200	-3,968	0,140
306,250	-3,968	0,141
306,300	-3,968	0,140
306,350	-3,969	0,141
306,400	-3,980	0,140
306,450	-3,989	0,141
306,500	-4,004	0,140
306,550	-4,029	0,141
306,600	-4,042	0,141
306,650	-4,049	0,141
306,700	-4,059	0,140
306,750	-4,062	0,141
306,800	-4,062	0,141
306,850	-4,062	0,141
306,900	-4,063	0,140
306,950	-4,074	0,141
307,000	-4,079	0,141
307,050	-4,082	0,141
307,100	-4,083	0,141
307,150	-4,084	0,141
307,200	-4,098	0,141
307,250	-4,102	0,141
307,300	-4,102	0,141
307,350	-4,108	0,141
307,400	-4,118	0,141
307,450	-4,122	0,142
307,500	-4,128	0,141
307,550	-4,137	0,141
307,600	-4,145	0,141
307,650	-4,145	0,142
307,700	-4,145	0,141
307,750	-4,146	0,141
307,800	-4,146	0,141
307,850	-4,146	0,142
307,900	-4,147	0,141
307,950	-4,146	0,142
308,000	-4,146	0,141
308,050	-4,147	0,142
308,100	-4,154	0,141
308,150	-4,177	0,142
308,200	-4,209	0,142
308,250	-4,237	0,142
308,300	-4,253	0,142
308,350	-4,268	0,142
308,400	-4,276	0,142
308,450	-4,282	0,142
308,500	-4,287	0,142
308,550	-4,303	0,142
308,600	-4,306	0,142
308,650	-4,318	0,142
308,700	-4,331	0,142
308,750	-4,338	0,142
308,800	-4,345	0,142
308,850	-4,356	0,143
308,900	-4,363	0,142
308,950	-4,372	0,143
309,000	-4,384	0,142
309,050	-4,398	0,143
309,100	-4,399	0,142
309,150	-4,399	0,143
309,200	-4,399	0,143
309,250	-4,399	0,143
309,300	-4,399	0,143
309,350	-4,401	0,143
309,400	-4,408	0,142
309,450	-4,409	0,143
309,500	-4,421	0,142
309,550	-4,428	0,143
309,600	-4,434	0,143
309,650	-4,444	0,143
309,700	-4,443	0,143
309,750	-4,444	0,143
309,800	-4,443	0,143
309,850	-4,443	0,143
309,900	-4,444	0,142
309,950	-4,443	0,143
310,000	-4,443	0,143
310,050	-4,443	0,143
310,100	-4,443	0,143
310,150	-4,443	0,143
310,200	-4,443	0,143
310,250	-4,443	0,143
310,300	-4,444	0,143
310,350	-4,443	0,143
310,400	-4,454	0,143
310,450	-4,489	0,144
310,500	-4,516	0,143
310,550	-4,543	0,144
310,600	-4,557	0,143
310,650	-4,566	0,144
310,700	-4,578	0,143
310,750	-4,592	0,144
310,800	-4,607	0,143
310,850	-4,614	0,144
310,900	-4,633	0,144
310,950	-4,653	0,144
311,000	-4,671	0,144
311,050	-4,675	0,144
311,100	-4,675	0,144
311,150	-4,675	0,144
311,200	-4,675	0,144
311,250	-4,674	0,145
311,300	-4,675	0,144
311,350	-4,675	0,144
311,400	-4,675	0,144
311,450	-4,675	0,145
311,500	-4,675	0,144
311,550	-4,674	0,145
311,600	-4,675	0,144
311,650	-4,675	0,145
311,700	-4,677	0,144
311,750	-4,688	0,145
311,800	-4,705	0,145
311,850	-4,717	0,145
311,900	-4,730	0,144
311,950	-4,742	0,145
312,000	-4,751	0,145
312,050	-4,759	0,145
312,100	-4,770	0,145
312,150	-4,780	0,145
312,200	-4,795	0,145
312,250	-4,812	0,145
312,300	-4,822	0,145
312,350	-4,836	0,146
312,400	-4,858	0,145
312,450	-4,881	0,145
312,500	-4,906	0,145
312,550	-4,938	0,146
312,600	-4,964	0,145
312,650	-4,989	0,146
312,700	-5,008	0,145
312,750	-5,021	0,146
312,800	-5,038	0,145
312,850	-5,044	0,146
312,900	-5,048	0,145
312,950	-5,054	0,146
313,000	-5,061	0,146
313,050	-5,065	0,146
313,100	-5,071	0,146
313,150	-5,080	0,146
313,200	-5,092	0,146
313,250	-5,103	0,146
313,300	-5,120	0,146
313,350	-5,130	0,146
313,400	-5,140	0,146
313,450	-5,150	0,147
313,500	-5,164	0,146
313,550	-5,172	0,147
313,600	-5,181	0,146
313,650	-5,189	0,147
313,700	-5,197	0,146
313,750	-5,202	0,147
313,800	-5,205	0,146
313,850	-5,206	0,147
313,900	-5,207	0,147
313,950	-5,212	0,147
314,000	-5,215	0,146
314,050	-5,216	0,147
314,100	-5,219	0,147
314,150	-5,219	0,147
314,200	-5,220	0,147
314,250	-5,220	0,147
314,300	-5,225	0,147
314,350	-5,228	0,147
314,400	-5,228	0,147
314,450	-5,232	0,147
314,500	-5,232	0,147
314,550	-5,233	0,147
314,600	-5,232	0,147
314,650	-5,233	0,147
314,700	-5,233	0,147
314,750	-5,233	0,147
314,800	-5,238	0,147
314,850	-5,247	0,147
314,900	-5,259	0,147
314,950	-5,273	0,148
315,000	-5,285	0,147
315,050	-5,302	0,148
315,100	-5,315	0,147
315,150	-5,326	0,148
315,200	-5,332	0,147
315,250	-5,341	0,148
315,300	-5,353	0,148
315,350	-5,363	0,148
315,400	-5,372	0,147
315,450	-5,387	0,148
315,500	-5,395	0,148
315,550	-5,403	0,148
315,600	-5,407	0,148
315,650	-5,410	0,148
315,700	-5,414	0,148
315,750	-5,416	0,148
315,800	-5,415	0,148
315,850	-5,416	0,149
315,900	-5,418	0,148
315,950	-5,420	0,148
316,000	-5,425	0,148
316,050	-5,428	0,148
316,100	-5,428	0,148
316,150	-5,428	0,149
316,200	-5,428	0,148
316,250	-5,428	0,149
316,300	-5,428	0,148
316,350	-5,428	0,149
316,400	-5,428	0,148
316,450	-5,428	0,148
316,500	-5,428	0,148
316,550	-5,429	0,149
316,600	-5,443	0,148
316,650	-5,479	0,148
316,700	-5,504	0,148
316,750	-5,508	0,149
316,800	-5,526	0,148
316,850	-5,539	0,149
316,900	-5,553	0,149
316,950	-5,571	0,149
317,000	-5,579	0,149
317,050	-5,596	0,149
317,100	-5,610	0,149
317,150	-5,623	0,149
317,200	-5,651	0,149
317,250	-5,670	0,150
317,300	-5,675	0,149
317,350	-5,694	0,150
317,400	-5,701	0,149
317,450	-5,703	0,149
317,500	-5,703	0,149
317,550	-5,707	0,150
317,600	-5,714	0,150
317,650	-5,715	0,150
317,700	-5,717	0,149
317,750	-5,720	0,150
317,800	-5,722	0,149
317,850	-5,727	0,150
317,900	-5,728	0,150
317,950	-5,741	0,150
318,000	-5,753	0,149
318,050	-5,754	0,150
318,100	-5,754	0,150
318,150	-5,755	0,150
318,200	-5,754	0,150
318,250	-5,760	0,150
318,300	-5,769	0,150
318,350	-5,772	0,150
318,400	-5,778	0,150
318,450	-5,787	0,150
318,500	-5,790	0,150
318,550	-5,790	0,150
318,600	-5,790	0,150
318,650	-5,790	0,150
318,700	-5,793	0,150
318,750	-5,795	0,150
318,800	-5,795	0,150
318,850	-5,795	0,150
318,900	-5,795	0,150
318,950	-5,795	0,150
319,000	-5,795	0,150
319,050	-5,795	0,150
319,100	-5,795	0,150
319,150	-5,795	0,150
319,200	-5,795	0,150
319,250	-5,796	0,150
319,300	-5,796	0,150
319,350	-5,796	0,151
319,400	-5,803	0,150
319,450	-5,815	0,151
319,500	-5,816	0,151
319,550	-5,817	0,151
319,600	-5,817	0,150
319,650	-5,817	0,151
319,700	-5,819	0,151
319,750	-5,830	0,151
319,800	-5,830	0,151
319,850	-5,838	0,151
319,900	-5,844	0,151
319,950	-5,844	0,151
320,000	-5,844	0,151
320,050	-5,853	0,151
320,100	-5,857	0,151
320,150	-5,857	0,151
320,200	-5,857	0,151
320,250	-5,857	0,151
320,300	-5,864	0,151
320,350	-5,866	0,151
320,400	-5,874	0,151
320,450	-5,880	0,151
320,500	-5,880	0,151
320,550	-5,880	0,151
320,600	-5,880	0,151
320,650	-5,880	0,151
320,700	-5,880	0,151
320,750	-5,879	0,152
320,800	-5,886	0,151
320,850	-5,902	0,152
320,900	-5,916	0,151
320,950	-5,920	0,152
321,000	-5,919	0,152
321,050	-5,920	0,151
321,100	-5,920	0,152
321,150	-5,920	0,152
321,200	-5,935	0,151
321,250	-5,938	0,152
321,300	-5,940	0,152
321,350	-5,941	0,152
321,400	-5,941	0,152
321,450	-5,941	0,152
321,500	-5,942	0,152
321,550	-5,942	0,152
321,600	-5,946	0,152
321,650	-5,950	0,152
321,700	-5,950	0,152
321,750	-5,950	0,152
321,800	-5,950	0,152
321,850	-5,951	0,152
321,900	-5,961	0,152
321,950	-6,027	0,152
322,000	-6,096	0,152
322,050	-6,137	0,152
322,100	-6,169	0,152
322,150	-6,181	0,152
322,200	-6,183	0,152
322,250	-6,183	0,152
322,300	-6,183	0,152
322,350	-6,183	0,153
322,400	-6,182	0,153
322,450	-6,183	0,153
322,500	-6,183	0,153
322,550	-6,195	0,153
322,600	-6,237	0,153
322,650	-6,279	0,153
322,700	-6,315	0,153
322,750	-6,357	0,153
322,800	-6,387	0,154
322,850	-6,426	0,153
322,900	-6,447	0,153
322,950	-6,471	0,154
323,000	-6,504	0,153
323,050	-6,534	0,154
323,100	-6,553	0,154
323,150	-6,582	0,154
323,200	-6,603	0,154
323,250	-6,629	0,154
323,300	-6,646	0,154
323,350	-6,655	0,154
323,400	-6,660	0,154
323,450	-6,663	0,154
323,500	-6,664	0,154
323,550	-6,665	0,154
323,600	-6,665	0,154
323,650	-6,666	0,155
323,700	-6,666	0,154
323,750	-6,666	0,155
323,800	-6,666	0,154
323,850	-6,667	0,154
323,900	-6,666	0,154
323,950	-6,667	0,154
324,000	-6,666	0,154
324,050	-6,667	0,154
324,100	-6,666	0,154
324,150	-6,667	0,155
324,200	-6,666	0,155
324,250	-6,667	0,154
324,300	-6,667	0,155
324,350	-6,667	0,155
324,400	-6,666	0,155
324,450	-6,667	0,155
324,500	-6,666	0,155
324,550	-6,667	0,155
324,600	-6,667	0,155
324,650	-6,667	0,155
324,700	-6,666	0,155
324,750	-6,667	0,155
324,800	-6,667	0,155
324,850	-6,667	0,155
324,900	-6,667	0,155
324,950	-6,667	0,155
325,000	-6,667	0,155
325,050	-6,667	0,155
325,100	-6,667	0,155
325,150	-6,667	0,155
325,200	-6,667	0,155
325,250	-6,667	0,155
325,300	-6,667	0,155
325,350	-6,667	0,155
325,400	-6,667	0,155
325,450	-6,667	0,155
325,500	-6,667	0,155
325,550	-6,667	0,155
325,600	-6,667	0,155
325,650	-6,667	0,155
325,700	-6,667	0,155
325,750	-6,667	0,155
325,800	-6,667	0,155
325,850	-6,667	0,155
325,900	-6,667	0,155
325,950	-6,667	0,155
326,000	-6,666	0,156
326,050	-6,667	0,155
326,100	-6,667	0,155
326,150	-6,667	0,155
326,200	-6,667	0,155
326,250	-6,667	0,155
326,300	-6,667	0,155
326,350	-6,667	0,155
326,400	-6,667	0,155
326,450	-6,667	0,156
326,500	-6,667	0,156
326,550	-6,667	0,155
326,600	-6,667	0,155
326,650	-6,667	0,156
326,700	-6,667	0,155
326,750	-6,667	0,156
326,800	-6,667	0,156
326,850	-6,667	0,156
326,900	-6,667	0,156
326,950	-6,668	0,155
327,000	-6,667	0,156
327,050	-6,667	0,156
327,100	-6,667	0,156
327,150	-6,667	0,156
327,200	-6,667	0,156
327,250	-6,667	0,156
327,300	-6,667	0,156
327,350	-6,667	0,156
327,400	-6,667	0,156
327,450	-6,667	0,156
327,500	-6,667	0,156
327,550	-6,667	0,156
327,600	-6,667	0,156
327,650	-6,667	0,156
327,700	-6,667	0,156
327,750	-6,667	0,156
327,800	-6,667	0,156
327,850	-6,667	0,156
327,900	-6,667	0,156
327,950	-6,667	0,156
328,000	-6,667	0,156
328,050	-6,667	0,156
328,100	-6,667	0,156
328,150	-6,667	0,156
328,200	-6,667	0,156
328,250	-6,667	0,156
328,300	-6,667	0,156
328,350	-6,667	0,156
328,400	-6,667	0,156
328,450	-6,667	0,156
328,500	-6,667	0,156
328,550	-6,668	0,156
328,600	-6,667	0,156
328,650	-6,668	0,156
328,700	-6,667	0,156
328,750	-6,668	0,156
328,800	-6,667	0,157
328,850	-6,667	0,156
328,900	-6,667	0,156
328,950	-6,667	0,156
329,000	-6,667	0,156
329,050	-6,667	0,156
329,100	-6,667	0,156
329,150	-6,668	0,156
329,200	-6,667	0,156
329,250	-6,667	0,157
329,300	-6,667	0,157
329,350	-6,667	0,157
329,400	-6,667	0,157
329,450	-6,667	0,156
329,500	-6,667	0,157
329,550	-6,667	0,157
329,600	-6,667	0,157
329,650	-6,667	0,157
329,700	-6,667	0,157
329,750	-6,667	0,157
329,800	-6,667	0,157
329,850	-6,667	0,157
329,900	-6,667	0,157
329,950	-6,667	0,157
330,000	-6,667	0,157
330,050	-6,667	0,157
330,100	-6,667	0,157
330,150	-6,667	0,157
330,200	-6,667	0,157
330,250	-6,668	0,157
330,300	-6,667	0,157
330,350	-6,667	0,157
330,400	-6,667	0,157
330,450	-6,667	0,157
330,500	-6,667	0,157
330,550	-6,667	0,157
330,600	-6,667	0,157
330,650	-6,667	0,157
330,700	-6,667	0,157
330,750	-6,667	0,157
330,800	-6,667	0,157
330,850	-6,668	0,157
330,900	-6,667	0,157
330,950	-6,667	0,157
331,000	-6,667	0,157
331,050	-6,667	0,157
331,100	-6,667	0,157
331,150	-6,667	0,157
331,200	-6,667	0,158
331,250	-6,667	0,158
331,300	-6,667	0,157
331,350	-6,668	0,157
331,400	-6,667	0,157
331,450	-6,667	0,158
331,500	-6,667	0,158
331,550	-6,667	0,158
331,600	-6,667	0,157
331,650	-6,668	0,157
331,700	-6,667	0,158
331,750	-6,667	0,158
331,800	-6,667	0,158
331,850	-6,667	0,158
331,900	-6,667	0,157
331,950	-6,667	0,158
332,000	-6,667	0,158
332,050	-6,667	0,158
332,100	-6,667	0,158
332,150	-6,667	0,158
332,200	-6,667	0,158
332,250	-6,667	0,158
332,300	-6,667	0,158
332,350	-6,668	0,158
332,400	-6,667	0,158
332,450	-6,668	0,158
332,500	-6,667	0,158
332,550	-6,667	0,158
332,600	-6,667	0,158
332,650	-6,667	0,158
332,700	-6,667	0,158
332,750	-6,653	0,158
332,800	-6,624	0,158
332,850	-6,593	0,158
332,900	-6,561	0,158
332,950	-6,547	0,158
333,000	-6,526	0,158
333,050	-6,514	0,158
333,100	-6,513	0,158
333,150	-6,514	0,158
333,200	-6,514	0,157
333,250	-6,514	0,158
333,300	-6,507	0,158
333,350	-6,499	0,158
333,400	-6,491	0,158
333,450	-6,487	0,158
333,500	-6,480	0,158
333,550	-6,478	0,158
333,600	-6,477	0,158
333,650	-6,477	0,158
333,700	-6,478	0,158
333,750	-6,478	0,158
333,800	-6,477	0,158
333,850	-6,477	0,158
333,900	-6,476	0,158
333,950	-6,449	0,158
334,000	-6,408	0,157
334,050	-6,392	0,158
334,100	-6,362	0,157
334,150	-6,344	0,158
334,200	-6,324	0,158
334,250	-6,321	0,158
334,300	-6,321	0,158
334,350	-6,321	0,158
334,400	-6,321	0,158
334,450	-6,321	0,158
334,500	-6,321	0,158
334,550	-6,321	0,158
334,600	-6,321	0,158
334,650	-6,321	0,158
334,700	-6,321	0,158
334,750	-6,321	0,158
334,800	-6,321	0,158
334,850	-6,318	0,158
334,900	-6,309	0,158
334,950	-6,304	0,158
335,000	-6,303	0,158
335,050	-6,303	0,158
335,100	-6,303	0,158
335,150	-6,303	0,158
335,200	-6,303	0,158
335,250	-6,303	0,158
335,300	-6,303	0,158
335,350	-6,303	0,158
335,400	-6,303	0,158
335,450	-6,303	0,158
335,500	-6,303	0,158
335,550	-6,296	0,158
335,600	-6,292	0,158
335,650	-6,286	0,159
335,700	-6,285	0,158
335,750	-6,280	0,159
335,800	-6,276	0,158
335,850	-6,269	0,159
335,900	-6,267	0,158
335,950	-6,262	0,159
336,000	-6,255	0,158
336,050	-6,250	0,159
336,100	-6,243	0,158
336,150	-6,239	0,159
336,200	-6,237	0,158
336,250	-6,233	0,158
336,300	-6,230	0,158
336,350	-6,228	0,159
336,400	-6,224	0,158
336,450	-6,218	0,159
336,500	-6,213	0,158
336,550	-6,210	0,159
336,600	-6,210	0,158
336,650	-6,210	0,159
336,700	-6,208	0,158
336,750	-6,205	0,159
336,800	-6,205	0,158
336,850	-6,204	0,159
336,900	-6,197	0,158
336,950	-6,191	0,159
337,000	-6,185	0,158
337,050	-6,183	0,159
337,100	-6,183	0,159
337,150	-6,183	0,159
337,200	-6,183	0,158
337,250	-6,183	0,159
337,300	-6,183	0,159
337,350	-6,187	0,159
337,400	-6,187	0,158
337,450	-6,187	0,159
337,500	-6,187	0,159
337,550	-6,187	0,159
337,600	-6,187	0,159
337,650	-6,187	0,159
337,700	-6,187	0,159
337,750	-6,187	0,159
337,800	-6,187	0,159
337,850	-6,180	0,159
337,900	-6,169	0,159
337,950	-6,169	0,159
338,000	-6,164	0,159
338,050	-6,159	0,159
338,100	-6,153	0,159
338,150	-6,133	0,159
338,200	-6,116	0,159
338,250	-6,115	0,159
338,300	-6,116	0,158
338,350	-6,115	0,160
338,400	-6,115	0,159
338,450	-6,116	0,160
338,500	-6,116	0,159
338,550	-6,116	0,159
338,600	-6,115	0,159
338,650	-6,116	0,159
338,700	-6,116	0,159
338,750	-6,116	0,159
338,800	-6,108	0,159
338,850	-6,099	0,160
338,900	-6,098	0,159
338,950	-6,098	0,160
339,000	-6,098	0,159
339,050	-6,098	0,160
339,100	-6,098	0,159
339,150	-6,097	0,160
339,200	-6,097	0,159
339,250	-6,097	0,160
339,300	-6,098	0,159
339,350	-6,097	0,160
339,400	-6,093	0,159
339,450	-6,077	0,160
339,500	-6,076	0,159
339,550	-6,076	0,159
339,600	-6,076	0,159
339,650	-6,076	0,160
339,700	-6,076	0,159
339,750	-6,076	0,160
339,800	-6,073	0,159
339,850	-6,066	0,160
339,900	-6,067	0,159
339,950	-6,065	0,160
340,000	-6,064	0,159
340,050	-6,063	0,160
340,100	-6,063	0,159
340,150	-6,063	0,160
340,200	-6,063	0,159
340,250	-6,062	0,160
340,300	-6,063	0,159
340,350	-6,063	0,160
340,400	-6,063	0,159
340,450	-6,063	0,160
340,500	-6,062	0,159
340,550	-6,055	0,160
340,600	-6,044	0,159
340,650	-6,044	0,160
340,700	-6,044	0,159
340,750	-6,044	0,160
340,800	-6,044	0,159
340,850	-6,044	0,160
340,900	-6,041	0,159
340,950	-6,030	0,160
341,000	-6,026	0,159
341,050	-6,026	0,160
341,100	-6,025	0,159
341,150	-6,018	0,160
341,200	-5,999	0,159
341,250	-5,995	0,160
341,300	-5,995	0,160
341,350	-5,995	0,160
341,400	-5,995	0,159
341,450	-5,995	0,160
341,500	-5,984	0,160
341,550	-5,974	0,161
341,600	-5,973	0,159
341,650	-5,973	0,160
341,700	-5,973	0,160
341,750	-5,968	0,160
341,800	-5,960	0,160
341,850	-5,955	0,160
341,900	-5,955	0,160
341,950	-5,954	0,161
342,000	-5,953	0,160
342,050	-5,952	0,160
342,100	-5,951	0,160
342,150	-5,952	0,161
342,200	-5,952	0,159
342,250	-5,951	0,161
342,300	-5,943	0,160
342,350	-5,918	0,161
342,400	-5,903	0,160
342,450	-5,903	0,161
342,500	-5,901	0,160
342,550	-5,898	0,161
342,600	-5,898	0,160
342,650	-5,897	0,161
342,700	-5,896	0,160
342,750	-5,895	0,161
342,800	-5,895	0,160
342,850	-5,895	0,161
342,900	-5,895	0,160
342,950	-5,895	0,161
343,000	-5,896	0,160
343,050	-5,895	0,161
343,100	-5,895	0,160
343,150	-5,895	0,161
343,200	-5,895	0,160
343,250	-5,896	0,161
343,300	-5,895	0,160
343,350	-5,895	0,161
343,400	-5,895	0,160
343,450	-5,894	0,161
343,500	-5,889	0,160
343,550	-5,876	0,161
343,600	-5,875	0,160
343,650	-5,874	0,161
343,700	-5,875	0,160
343,750	-5,862	0,161
343,800	-5,853	0,160
343,850	-5,853	0,161
343,900	-5,845	0,160
343,950	-5,836	0,161
344,000	-5,836	0,160
344,050	-5,835	0,161
344,100	-5,830	0,160
344,150	-5,830	0,161
344,200	-5,830	0,160
344,250	-5,828	0,161
344,300	-5,822	0,160
344,350	-5,812	0,161
344,400	-5,809	0,160
344,450	-5,809	0,161
344,500	-5,809	0,160
344,550	-5,809	0,161
344,600	-5,809	0,160
344,650	-5,809	0,161
344,700	-5,809	0,160
344,750	-5,806	0,161
344,800	-5,798	0,160
344,850	-5,794	0,161
344,900	-5,794	0,160
344,950	-5,788	0,161
345,000	-5,783	0,160
345,050	-5,777	0,162
345,100	-5,777	0,160
345,150	-5,773	0,161
345,200	-5,772	0,160
345,250	-5,772	0,161
345,300	-5,772	0,161
345,350	-5,772	0,161
345,400	-5,772	0,161
345,450	-5,771	0,161
345,500	-5,769	0,161
345,550	-5,771	0,162
345,600	-5,771	0,161
345,650	-5,770	0,162
345,700	-5,771	0,161
345,750	-5,758	0,161
345,800	-5,738	0,160
345,850	-5,729	0,161
345,900	-5,719	0,161
345,950	-5,707	0,162
346,000	-5,696	0,161
346,050	-5,696	0,162
346,100	-5,696	0,161
346,150	-5,696	0,162
346,200	-5,697	0,161
346,250	-5,697	0,162
346,300	-5,697	0,161
346,350	-5,697	0,162
346,400	-5,696	0,161
346,450	-5,696	0,162
346,500	-5,692	0,161
346,550	-5,675	0,162
346,600	-5,674	0,161
346,650	-5,674	0,162
346,700	-5,674	0,161
346,750	-5,674	0,162
346,800	-5,674	0,161
346,850	-5,674	0,162
346,900	-5,674	0,161
346,950	-5,670	0,162
347,000	-5,655	0,161
347,050	-5,648	0,162
347,100	-5,648	0,161
347,150	-5,642	0,162
347,200	-5,639	0,161
347,250	-5,633	0,162
347,300	-5,612	0,161
347,350	-5,603	0,162
347,400	-5,599	0,161
347,450	-5,599	0,162
347,500	-5,599	0,161
347,550	-5,599	0,162
347,600	-5,599	0,161
347,650	-5,591	0,162
347,700	-5,591	0,161
347,750	-5,590	0,162
347,800	-5,590	0,161
347,850	-5,590	0,162
347,900	-5,590	0,161
347,950	-5,591	0,162
348,000	-5,582	0,161
348,050	-5,576	0,162
348,100	-5,568	0,161
348,150	-5,559	0,163
348,200	-5,554	0,161
348,250	-5,554	0,162
348,300	-5,554	0,161
348,350	-5,550	0,162
348,400	-5,546	0,161
348,450	-5,541	0,162
348,500	-5,537	0,161
348,550	-5,537	0,162
348,600	-5,537	0,161
348,650	-5,537	0,162
348,700	-5,537	0,161
348,750	-5,537	0,162
348,800	-5,536	0,161
348,850	-5,536	0,163
348,900	-5,536	0,161
348,950	-5,536	0,163
349,000	-5,536	0,161
349,050	-5,536	0,163
349,100	-5,525	0,162
349,150	-5,462	0,162
349,200	-5,408	0,161
349,250	-5,402	0,162
349,300	-5,402	0,161
349,350	-5,402	0,162
349,400	-5,402	0,161
349,450	-5,402	0,162
349,500	-5,403	0,161
349,550	-5,402	0,162
349,600	-5,402	0,161
349,650	-5,402	0,163
349,700	-5,401	0,162
349,750	-5,390	0,162
349,800	-5,381	0,161
349,850	-5,372	0,162
349,900	-5,367	0,162
349,950	-5,366	0,162
350,000	-5,363	0,161
350,050	-5,362	0,163
350,100	-5,363	0,161
350,150	-5,361	0,163
350,200	-5,358	0,161
350,250	-5,359	0,162
350,300	-5,359	0,161
350,350	-5,358	0,163
350,400	-5,358	0,161
350,450	-5,358	0,163
350,500	-5,347	0,162
350,550	-5,344	0,162
350,600	-5,344	0,162
350,650	-5,344	0,163
350,700	-5,342	0,162
350,750	-5,336	0,163
350,800	-5,326	0,162
350,850	-5,314	0,163
350,900	-5,309	0,161
350,950	-5,309	0,163
351,000	-5,308	0,162
351,050	-5,300	0,163
351,100	-5,300	0,162
351,150	-5,299	0,163
351,200	-5,294	0,162
351,250	-5,285	0,163
351,300	-5,282	0,162
351,350	-5,274	0,163
351,400	-5,271	0,162
351,450	-5,269	0,163
351,500	-5,265	0,162
351,550	-5,253	0,163
351,600	-5,241	0,162
351,650	-5,238	0,163
351,700	-5,235	0,162
351,750	-5,234	0,163
351,800	-5,231	0,162
351,850	-5,226	0,163
351,900	-5,224	0,162
351,950	-5,224	0,163
352,000	-5,211	0,162
352,050	-5,206	0,163
352,100	-5,205	0,162
352,150	-5,199	0,163
352,200	-5,197	0,162
352,250	-5,189	0,163
352,300	-5,189	0,162
352,350	-5,186	0,163
352,400	-5,184	0,162
352,450	-5,183	0,163
352,500	-5,180	0,162
352,550	-5,176	0,163
352,600	-5,176	0,162
352,650	-5,176	0,163
352,700	-5,175	0,162
352,750	-5,172	0,163
352,800	-5,171	0,162
352,850	-5,171	0,163
352,900	-5,167	0,162
352,950	-5,166	0,163
353,000	-5,165	0,162
353,050	-5,161	0,164
353,100	-5,142	0,162
353,150	-5,124	0,163
353,200	-5,117	0,162
353,250	-5,117	0,163
353,300	-5,116	0,162
353,350	-5,116	0,163
353,400	-5,116	0,162
353,450	-5,117	0,163
353,500	-5,117	0,162
353,550	-5,116	0,163
353,600	-5,114	0,162
353,650	-5,111	0,163
353,700	-5,108	0,162
353,750	-5,108	0,163
353,800	-5,106	0,162
353,850	-5,104	0,163
353,900	-5,100	0,162
353,950	-5,099	0,163
354,000	-5,099	0,162
354,050	-5,098	0,164
354,100	-5,091	0,162
354,150	-5,090	0,164
354,200	-5,088	0,162
354,250	-5,084	0,163
354,300	-5,081	0,163
354,350	-5,081	0,164
354,400	-5,080	0,162
354,450	-5,073	0,164
354,500	-5,068	0,163
354,550	-5,062	0,164
354,600	-5,059	0,162
354,650	-5,059	0,164
354,700	-5,058	0,163
354,750	-5,058	0,164
354,800	-5,055	0,163
354,850	-5,054	0,164
354,900	-5,049	0,163
354,950	-5,042	0,164
355,000	-5,028	0,163
355,050	-5,022	0,164
355,100	-5,018	0,163
355,150	-5,016	0,164
355,200	-5,009	0,163
355,250	-5,002	0,163
355,300	-4,998	0,163
355,350	-4,996	0,163
355,400	-4,996	0,163
355,450	-4,994	0,164
355,500	-4,990	0,163
355,550	-4,986	0,164
355,600	-4,984	0,163
355,650	-4,983	0,164
355,700	-4,979	0,163
355,750	-4,970	0,164
355,800	-4,960	0,163
355,850	-4,956	0,164
355,900	-4,956	0,163
355,950	-4,956	0,164
356,000	-4,956	0,163
356,050	-4,956	0,164
356,100	-4,956	0,163
356,150	-4,953	0,164
356,200	-4,950	0,163
356,250	-4,947	0,164
356,300	-4,947	0,163
356,350	-4,947	0,164
356,400	-4,942	0,163
356,450	-4,939	0,164
356,500	-4,937	0,163
356,550	-4,933	0,164
356,600	-4,927	0,163
356,650	-4,925	0,164
356,700	-4,923	0,163
356,750	-4,921	0,164
356,800	-4,916	0,163
356,850	-4,914	0,164
356,900	-4,902	0,163
356,950	-4,880	0,164
357,000	-4,875	0,163
357,050	-4,875	0,164
357,100	-4,876	0,163
357,150	-4,876	0,164
357,200	-4,875	0,163
357,250	-4,875	0,164
357,300	-4,875	0,163
357,350	-4,876	0,164
357,400	-4,873	0,163
357,450	-4,871	0,164
357,500	-4,871	0,163
357,550	-4,871	0,164
357,600	-4,871	0,163
357,650	-4,871	0,164
357,700	-4,871	0,163
357,750	-4,871	0,165
357,800	-4,871	0,163
357,850	-4,871	0,164
357,900	-4,868	0,163
357,950	-4,860	0,164
358,000	-4,855	0,163
358,050	-4,853	0,165
358,100	-4,853	0,164
358,150	-4,853	0,165
358,200	-4,850	0,164
358,250	-4,849	0,165
358,300	-4,849	0,163
358,350	-4,846	0,164
358,400	-4,842	0,164
358,450	-4,838	0,165
358,500	-4,833	0,164
358,550	-4,828	0,165
358,600	-4,822	0,163
358,650	-4,820	0,165
358,700	-4,814	0,163
358,750	-4,812	0,164
358,800	-4,809	0,163
358,850	-4,809	0,165
358,900	-4,809	0,164
358,950	-4,809	0,165
359,000	-4,809	0,164
359,050	-4,809	0,164
359,100	-4,809	0,163
359,150	-4,809	0,165
359,200	-4,808	0,164
359,250	-4,808	0,165
359,300	-4,807	0,164
359,350	-4,805	0,164
359,400	-4,804	0,164
359,450	-4,804	0,165
359,500	-4,800	0,164
359,550	-4,796	0,165
359,600	-4,793	0,164
359,650	-4,791	0,165
359,700	-4,791	0,164
359,750	-4,787	0,165
359,800	-4,783	0,164
359,850	-4,782	0,165
359,900	-4,782	0,164
359,950	-4,782	0,165
360,000	-4,781	0,164
360,050	-4,778	0,165
360,100	-4,776	0,164
360,150	-4,773	0,165
360,200	-4,773	0,164
360,250	-4,769	0,165
360,300	-4,760	0,164
360,350	-4,755	0,165
360,400	-4,755	0,164
360,450	-4,747	0,165
360,500	-4,738	0,164
360,550	-4,733	0,165
360,600	-4,727	0,164
360,650	-4,721	0,165
360,700	-4,719	0,164
360,750	-4,715	0,165
360,800	-4,714	0,164
360,850	-4,710	0,165
360,900	-4,708	0,164
360,950	-4,705	0,165
361,000	-4,699	0,164
361,050	-4,693	0,165
361,100	-4,692	0,164
361,150	-4,692	0,165
361,200	-4,687	0,165
361,250	-4,684	0,165
361,300	-4,683	0,165
361,350	-4,684	0,165
361,400	-4,684	0,164
361,450	-4,684	0,165
361,500	-4,683	0,164
361,550	-4,679	0,165
361,600	-4,679	0,165
361,650	-4,679	0,165
361,700	-4,679	0,165
361,750	-4,679	0,166
361,800	-4,679	0,164
361,850	-4,672	0,165
361,900	-4,667	0,165
361,950	-4,661	0,166
362,000	-4,657	0,165
362,050	-4,649	0,166
362,100	-4,642	0,165
362,150	-4,633	0,165
362,200	-4,626	0,165
362,250	-4,615	0,166
362,300	-4,607	0,165
362,350	-4,604	0,166
362,400	-4,600	0,165
362,450	-4,596	0,166
362,500	-4,592	0,164
362,550	-4,588	0,166
362,600	-4,585	0,165
362,650	-4,577	0,166
362,700	-4,577	0,165
362,750	-4,577	0,165
362,800	-4,577	0,165
362,850	-4,577	0,166
362,900	-4,577	0,165
362,950	-4,580	0,166
363,000	-4,581	0,165
363,050	-4,581	0,166
363,100	-4,581	0,165
363,150	-4,581	0,166
363,200	-4,581	0,165
363,250	-4,581	0,166
363,300	-4,581	0,165
363,350	-4,580	0,166
363,400	-4,577	0,165
363,450	-4,577	0,166
363,500	-4,573	0,165
363,550	-4,573	0,166
363,600	-4,573	0,165
363,650	-4,573	0,166
363,700	-4,573	0,165
363,750	-4,571	0,166
363,800	-4,564	0,165
363,850	-4,564	0,166
363,900	-4,563	0,166
363,950	-4,564	0,166
364,000	-4,564	0,165
364,050	-4,563	0,166
364,100	-4,556	0,165
364,150	-4,548	0,167
364,200	-4,543	0,165
364,250	-4,532	0,166
364,300	-4,526	0,165
364,350	-4,520	0,167
364,400	-4,515	0,165
364,450	-4,509	0,166
364,500	-4,506	0,165
364,550	-4,503	0,166
364,600	-4,498	0,165
364,650	-4,493	0,166
364,700	-4,490	0,165
364,750	-4,488	0,167
364,800	-4,488	0,165
364,850	-4,486	0,167
364,900	-4,482	0,166
364,950	-4,479	0,167
365,000	-4,479	0,165
365,050	-4,476	0,167
365,100	-4,474	0,166
365,150	-4,469	0,166
365,200	-4,462	0,166
365,250	-4,454	0,167
365,300	-4,448	0,166
365,350	-4,448	0,167
365,400	-4,447	0,166
365,450	-4,444	0,167
365,500	-4,443	0,166
365,550	-4,439	0,167
365,600	-4,435	0,166
365,650	-4,435	0,167
365,700	-4,434	0,166
365,750	-4,435	0,167
365,800	-4,431	0,166
365,850	-4,428	0,167
365,900	-4,423	0,166
365,950	-4,416	0,167
366,000	-4,397	0,166
366,050	-4,387	0,167
366,100	-4,386	0,166
366,150	-4,386	0,167
366,200	-4,386	0,166
366,250	-4,386	0,167
366,300	-4,385	0,166
366,350	-4,386	0,167
366,400	-4,385	0,166
366,450	-4,386	0,167
366,500	-4,385	0,166
366,550	-4,385	0,167
366,600	-4,385	0,166
366,650	-4,383	0,167
366,700	-4,377	0,166
366,750	-4,372	0,167
366,800	-4,372	0,166
366,850	-4,372	0,167
366,900	-4,369	0,166
366,950	-4,368	0,167
367,000	-4,367	0,166
367,050	-4,364	0,168
367,100	-4,363	0,166
367,150	-4,360	0,167
367,200	-4,360	0,166
367,250	-4,358	0,167
367,300	-4,354	0,166
367,350	-4,348	0,167
367,400	-4,342	0,167
367,450	-4,339	0,167
367,500	-4,338	0,166
367,550	-4,336	0,167
367,600	-4,336	0,167
367,650	-4,327	0,167
367,700	-4,313	0,166
367,750	-4,296	0,167
367,800	-4,293	0,167
367,850	-4,293	0,167
367,900	-4,293	0,166
367,950	-4,293	0,167
368,000	-4,293	0,167
368,050	-4,289	0,167
368,100	-4,287	0,167
368,150	-4,284	0,167
368,200	-4,281	0,167
368,250	-4,280	0,168
368,300	-4,280	0,167
368,350	-4,280	0,167
368,400	-4,280	0,167
368,450	-4,275	0,168
368,500	-4,269	0,167
368,550	-4,266	0,168
368,600	-4,266	0,167
368,650	-4,266	0,167
368,700	-4,264	0,167
368,750	-4,263	0,167
368,800	-4,263	0,167
368,850	-4,263	0,168
368,900	-4,262	0,167
368,950	-4,262	0,168
369,000	-4,262	0,167
369,050	-4,262	0,168
369,100	-4,262	0,167
369,150	-4,262	0,167
369,200	-4,262	0,167
369,250	-4,262	0,168
369,300	-4,262	0,167
369,350	-4,262	0,168
369,400	-4,254	0,167
369,450	-4,232	0,167
369,500	-4,218	0,167
369,550	-4,208	0,168
369,600	-4,208	0,167
369,650	-4,208	0,168
369,700	-4,208	0,167
369,750	-4,208	0,168
369,800	-4,203	0,167
369,850	-4,187	0,168
369,900	-4,174	0,167
369,950	-4,168	0,168
370,000	-4,168	0,167
370,050	-4,168	0,168
370,100	-4,168	0,167
370,150	-4,167	0,168
370,200	-4,164	0,167
370,250	-4,160	0,168
370,300	-4,156	0,167
370,350	-4,155	0,168
370,400	-4,155	0,167
370,450	-4,150	0,168
370,500	-4,144	0,167
370,550	-4,141	0,168
370,600	-4,135	0,167
370,650	-4,131	0,168
370,700	-4,128	0,167
370,750	-4,120	0,168
370,800	-4,112	0,167
370,850	-4,107	0,168
370,900	-4,106	0,167
370,950	-4,103	0,168
371,000	-4,102	0,167
371,050	-4,099	0,168
371,100	-4,093	0,167
371,150	-4,091	0,168
371,200	-4,088	0,167
371,250	-4,086	0,168
371,300	-4,083	0,167
371,350	-4,082	0,168
371,400	-4,079	0,167
371,450	-4,079	0,168
371,500	-4,079	0,167
371,550	-4,081	0,168
371,600	-4,083	0,167
371,650	-4,083	0,168
371,700	-4,083	0,167
371,750	-4,082	0,168
371,800	-4,082	0,167
371,850	-4,081	0,168
371,900	-4,079	0,168
371,950	-4,075	0,168
372,000	-4,060	0,168
372,050	-4,053	0,168
372,100	-4,049	0,168
372,150	-4,042	0,168
372,200	-4,040	0,168
372,250	-4,039	0,168
372,300	-4,034	0,168
372,350	-4,028	0,168
372,400	-4,021	0,168
372,450	-4,017	0,168
372,500	-4,012	0,168
372,550	-4,007	0,168
372,600	-4,004	0,168
372,650	-4,000	0,168
372,700	-3,991	0,168
372,750	-3,987	0,169
372,800	-3,978	0,168
372,850	-3,972	0,168
372,900	-3,962	0,168
372,950	-3,956	0,168
373,000	-3,950	0,168
373,050	-3,946	0,168
373,100	-3,939	0,168
373,150	-3,931	0,168
373,200	-3,915	0,168
373,250	-3,906	0,168
373,300	-3,905	0,168
373,350	-3,902	0,168
373,400	-3,902	0,168
373,450	-3,902	0,168
373,500	-3,902	0,168
373,550	-3,902	0,169
373,600	-3,902	0,168
373,650	-3,902	0,168
373,700	-3,902	0,168
373,750	-3,902	0,168
373,800	-3,902	0,168
373,850	-3,902	0,169
373,900	-3,902	0,168
373,950	-3,902	0,169
374,000	-3,887	0,168
374,050	-3,859	0,168
374,100	-3,834	0,168
374,150	-3,826	0,168
374,200	-3,826	0,168
374,250	-3,826	0,169
374,300	-3,826	0,168
374,350	-3,826	0,169
374,400	-3,826	0,168
374,450	-3,826	0,169
374,500	-3,826	0,169
374,550	-3,826	0,169
374,600	-3,826	0,169
374,650	-3,826	0,169
374,700	-3,826	0,168
374,750	-3,826	0,169
374,800	-3,826	0,168
374,850	-3,826	0,169
374,900	-3,820	0,168
374,950	-3,801	0,168
375,000	-3,791	0,169
375,050	-3,790	0,169
375,100	-3,790	0,169
375,150	-3,790	0,169
375,200	-3,790	0,169
375,250	-3,790	0,169
375,300	-3,790	0,168
375,350	-3,790	0,169
375,400	-3,790	0,169
375,450	-3,790	0,169
375,500	-3,788	0,169
375,550	-3,778	0,169
375,600	-3,771	0,169
375,650	-3,769	0,169
375,700	-3,768	0,169
375,750	-3,763	0,169
375,800	-3,756	0,169
375,850	-3,746	0,169
375,900	-3,739	0,169
375,950	-3,737	0,169
376,000	-3,735	0,168
376,050	-3,732	0,169
376,100	-3,730	0,169
376,150	-3,728	0,169
376,200	-3,721	0,169
376,250	-3,716	0,169
376,300	-3,713	0,169
376,350	-3,711	0,169
376,400	-3,702	0,169
376,450	-3,702	0,169
376,500	-3,698	0,169
376,550	-3,693	0,169
376,600	-3,686	0,169
376,650	-3,686	0,169
376,700	-3,685	0,169
376,750	-3,682	0,169
376,800	-3,682	0,169
376,850	-3,682	0,169
376,900	-3,682	0,169
376,950	-3,684	0,169
377,000	-3,683	0,169
377,050	-3,683	0,169
377,100	-3,683	0,169
377,150	-3,683	0,169
377,200	-3,681	0,169
377,250	-3,674	0,169
377,300	-3,660	0,169
377,350	-3,644	0,170
377,400	-3,631	0,169
377,450	-3,618	0,169
377,500	-3,612	0,169
377,550	-3,608	0,169
377,600	-3,606	0,169
377,650	-3,604	0,169
377,700	-3,603	0,169
377,750	-3,603	0,169
377,800	-3,603	0,169
377,850	-3,602	0,169
377,900	-3,599	0,169
377,950	-3,592	0,170
378,000	-3,588	0,169
378,050	-3,583	0,169
378,100	-3,580	0,169
378,150	-3,574	0,170
378,200	-3,565	0,169
378,250	-3,556	0,169
378,300	-3,554	0,169
378,350	-3,550	0,169
378,400	-3,549	0,169
378,450	-3,547	0,170
378,500	-3,545	0,169
378,550	-3,544	0,170
378,600	-3,538	0,169
378,650	-3,533	0,170
378,700	-3,532	0,169
378,750	-3,531	0,170
378,800	-3,527	0,169
378,850	-3,523	0,169
378,900	-3,522	0,170
378,950	-3,521	0,170
379,000	-3,521	0,170
379,050	-3,522	0,170
379,100	-3,519	0,170
379,150	-3,519	0,170
379,200	-3,519	0,170
379,250	-3,519	0,170
379,300	-3,519	0,170
379,350	-3,519	0,170
379,400	-3,519	0,170
379,450	-3,519	0,170
379,500	-3,519	0,170
379,550	-3,512	0,170
379,600	-3,503	0,169
379,650	-3,488	0,170
379,700	-3,479	0,170
379,750	-3,460	0,170
379,800	-3,446	0,170
379,850	-3,440	0,170
379,900	-3,438	0,170
379,950	-3,438	0,170
380,000	-3,438	0,170
380,050	-3,438	0,170
380,100	-3,437	0,170
380,150	-3,434	0,170
380,200	-3,430	0,170
380,250	-3,430	0,170
380,300	-3,428	0,170
380,350	-3,424	0,170
380,400	-3,420	0,170
380,450	-3,415	0,169
380,500	-3,409	0,170
380,550	-3,397	0,170
380,600	-3,388	0,170
380,650	-3,384	0,170
380,700	-3,379	0,170
380,750	-3,370	0,170
380,800	-3,366	0,170
380,850	-3,359	0,170
380,900	-3,348	0,170
380,950	-3,338	0,170
381,000	-3,332	0,170
381,050	-3,329	0,170
381,100	-3,323	0,170
381,150	-3,318	0,170
381,200	-3,312	0,170
381,250	-3,301	0,170
381,300	-3,292	0,170
381,350	-3,285	0,170
381,400	-3,278	0,170
381,450	-3,270	0,170
381,500	-3,263	0,170
381,550	-3,261	0,170
381,600	-3,261	0,170
381,650	-3,260	0,170
381,700	-3,258	0,170
381,750	-3,252	0,170
381,800	-3,252	0,170
381,850	-3,251	0,170
381,900	-3,251	0,170
381,950	-3,251	0,170
382,000	-3,251	0,170
382,050	-3,251	0,170
382,100	-3,251	0,170
382,150	-3,251	0,170
382,200	-3,249	0,170
382,250	-3,246	0,170
382,300	-3,232	0,171
382,350	-3,216	0,171
382,400	-3,202	0,170
382,450	-3,191	0,170
382,500	-3,189	0,170
382,550	-3,187	0,170
382,600	-3,185	0,170
382,650	-3,177	0,170
382,700	-3,164	0,170
382,750	-3,155	0,170
382,800	-3,141	0,170
382,850	-3,129	0,170
382,900	-3,119	0,170
382,950	-3,108	0,170
383,000	-3,105	0,170
383,050	-3,105	0,170
383,100	-3,101	0,170
383,150	-3,101	0,170
383,200	-3,101	0,170
383,250	-3,101	0,170
383,300	-3,101	0,170
383,350	-3,101	0,170
383,400	-3,101	0,170
383,450	-3,101	0,170
383,500	-3,101	0,170
383,550	-3,101	0,171
383,600	-3,101	0,171
383,650	-3,101	0,171
383,700	-3,101	0,171
383,750	-3,101	0,171
383,800	-3,101	0,171
383,850	-3,101	0,171
383,900	-3,101	0,170
383,950	-3,101	0,170
384,000	-3,101	0,171
384,050	-3,088	0,171
384,100	-3,054	0,171
384,150	-3,013	0,170
384,200	-2,996	0,171
384,250	-2,995	0,171
384,300	-2,994	0,171
384,350	-2,995	0,170
384,400	-2,995	0,170
384,450	-2,995	0,170
384,500	-2,995	0,171
384,550	-2,995	0,171
384,600	-2,995	0,171
384,650	-2,995	0,171
384,700	-2,995	0,171
384,750	-2,989	0,171
384,800	-2,981	0,171
384,850	-2,980	0,171
384,900	-2,978	0,171
384,950	-2,977	0,171
385,000	-2,977	0,171
385,050	-2,976	0,171
385,100	-2,974	0,171
385,150	-2,973	0,171
385,200	-2,973	0,171
385,250	-2,973	0,171
385,300	-2,972	0,171
385,350	-2,968	0,171
385,400	-2,964	0,171
385,450	-2,963	0,171
385,500	-2,957	0,171
385,550	-2,953	0,171
385,600	-2,950	0,171
385,650	-2,950	0,171
385,700	-2,947	0,171
385,750	-2,947	0,171
385,800	-2,946	0,171
385,850	-2,946	0,171
385,900	-2,946	0,171
385,950	-2,946	0,171
386,000	-2,946	0,171
386,050	-2,946	0,171
386,100	-2,943	0,171
386,150	-2,941	0,171
386,200	-2,937	0,171
386,250	-2,937	0,171
386,300	-2,936	0,171
386,350	-2,924	0,171
386,400	-2,916	0,171
386,450	-2,912	0,171
386,500	-2,906	0,172
386,550	-2,904	0,171
386,600	-2,901	0,171
386,650	-2,897	0,171
386,700	-2,895	0,172
386,750	-2,893	0,171
386,800	-2,891	0,172
386,850	-2,888	0,171
386,900	-2,888	0,171
386,950	-2,887	0,171
387,000	-2,887	0,171
387,050	-2,882	0,171
387,100	-2,880	0,172
387,150	-2,878	0,171
387,200	-2,875	0,172
387,250	-2,874	0,171
387,300	-2,874	0,172
387,350	-2,874	0,172
387,400	-2,873	0,172
387,450	-2,864	0,172
387,500	-2,861	0,172
387,550	-2,855	0,172
387,600	-2,845	0,172
387,650	-2,839	0,172
387,700	-2,839	0,172
387,750	-2,839	0,172
387,800	-2,839	0,172
387,850	-2,839	0,172
387,900	-2,839	0,172
387,950	-2,836	0,171
388,000	-2,831	0,172
388,050	-2,830	0,172
388,100	-2,830	0,172
388,150	-2,830	0,172
388,200	-2,826	0,172
388,250	-2,826	0,172
388,300	-2,826	0,172
388,350	-2,825	0,172
388,400	-2,825	0,173
388,450	-2,826	0,172
388,500	-2,825	0,172
388,550	-2,825	0,172
388,600	-2,826	0,172
388,650	-2,826	0,172
388,700	-2,825	0,172
388,750	-2,823	0,172
388,800	-2,790	0,172
388,850	-2,757	0,172
388,900	-2,741	0,172
388,950	-2,739	0,172
389,000	-2,739	0,172
389,050	-2,738	0,172
389,100	-2,738	0,172
389,150	-2,738	0,172
389,200	-2,735	0,172
389,250	-2,733	0,172
389,300	-2,732	0,172
389,350	-2,726	0,172
389,400	-2,721	0,173
389,450	-2,720	0,172
389,500	-2,720	0,172
389,550	-2,717	0,173
389,600	-2,712	0,173
389,650	-2,707	0,172
389,700	-2,706	0,173
389,750	-2,706	0,172
389,800	-2,706	0,172
389,850	-2,705	0,172
389,900	-2,701	0,172
389,950	-2,698	0,172
390,000	-2,697	0,173
390,050	-2,697	0,172
390,100	-2,694	0,173
390,150	-2,683	0,172
390,200	-2,679	0,173
390,250	-2,676	0,173
390,300	-2,676	0,172
390,350	-2,676	0,172
390,400	-2,676	0,173
390,450	-2,678	0,172
390,500	-2,683	0,173
390,550	-2,683	0,173
390,600	-2,680	0,173
390,650	-2,680	0,172
390,700	-2,680	0,173
390,750	-2,680	0,172
390,800	-2,680	0,173
390,850	-2,670	0,173
390,900	-2,636	0,173
390,950	-2,622	0,172
391,000	-2,619	0,173
391,050	-2,605	0,172
391,100	-2,599	0,173
391,150	-2,594	0,173
391,200	-2,594	0,173
391,250	-2,587	0,173
391,300	-2,579	0,173
391,350	-2,573	0,173
391,400	-2,567	0,173
391,450	-2,560	0,172
391,500	-2,557	0,173
391,550	-2,553	0,173
391,600	-2,550	0,173
391,650	-2,546	0,173
391,700	-2,546	0,173
391,750	-2,541	0,173
391,800	-2,536	0,173
391,850	-2,529	0,172
391,900	-2,524	0,172
391,950	-2,523	0,173
392,000	-2,517	0,173
392,050	-2,510	0,173
392,100	-2,502	0,173
392,150	-2,495	0,173
392,200	-2,480	0,173
392,250	-2,470	0,173
392,300	-2,463	0,173
392,350	-2,448	0,173
392,400	-2,443	0,173
392,450	-2,439	0,172
392,500	-2,433	0,173
392,550	-2,427	0,173
392,600	-2,426	0,173
392,650	-2,426	0,173
392,700	-2,426	0,173
392,750	-2,426	0,173
392,800	-2,416	0,173
392,850	-2,406	0,173
392,900	-2,400	0,173
392,950	-2,400	0,173
393,000	-2,399	0,173
393,050	-2,399	0,173
393,100	-2,387	0,173
393,150	-2,375	0,173
393,200	-2,372	0,173
393,250	-2,362	0,173
393,300	-2,348	0,173
393,350	-2,334	0,172
393,400	-2,323	0,173
393,450	-2,323	0,173
393,500	-2,323	0,173
393,550	-2,323	0,173
393,600	-2,323	0,173
393,650	-2,323	0,173
393,700	-2,323	0,173
393,750	-2,323	0,173
393,800	-2,323	0,173
393,850	-2,315	0,173
393,900	-2,312	0,173
393,950	-2,310	0,173
394,000	-2,303	0,174
394,050	-2,301	0,173
394,100	-2,300	0,173
394,150	-2,294	0,173
394,200	-2,286	0,174
394,250	-2,279	0,173
394,300	-2,277	0,173
394,350	-2,272	0,174
394,400	-2,269	0,173
394,450	-2,269	0,174
394,500	-2,260	0,174
394,550	-2,256	0,173
394,600	-2,253	0,173
394,650	-2,252	0,173
394,700	-2,251	0,173
394,750	-2,252	0,173
394,800	-2,251	0,174
394,850	-2,251	0,174
394,900	-2,251	0,174
394,950	-2,252	0,173
395,000	-2,250	0,174
395,050	-2,248	0,173
395,100	-2,247	0,174
395,150	-2,247	0,174
395,200	-2,247	0,173
395,250	-2,248	0,173
395,300	-2,247	0,174
395,350	-2,247	0,174
395,400	-2,242	0,174
395,450	-2,218	0,174
395,500	-2,196	0,174
395,550	-2,176	0,174
395,600	-2,151	0,173
395,650	-2,141	0,174
395,700	-2,127	0,173
395,750	-2,122	0,173
395,800	-2,115	0,174
395,850	-2,104	0,173
395,900	-2,098	0,173
395,950	-2,096	0,174
396,000	-2,096	0,173
396,050	-2,096	0,174
396,100	-2,096	0,174
396,150	-2,096	0,174
396,200	-2,096	0,173
396,250	-2,096	0,174
396,300	-2,096	0,173
396,350	-2,096	0,174
396,400	-2,096	0,174
396,450	-2,096	0,174
396,500	-2,096	0,174
396,550	-2,096	0,174
396,600	-2,096	0,174
396,650	-2,096	0,174
396,700	-2,096	0,174
396,750	-2,094	0,174
396,800	-2,086	0,174
396,850	-2,078	0,174
396,900	-2,069	0,174
396,950	-2,063	0,174
397,000	-2,059	0,174
397,050	-2,055	0,174
397,100	-2,051	0,174
397,150	-2,047	0,174
397,200	-2,043	0,174
397,250	-2,040	0,174
397,300	-2,038	0,174
397,350	-2,037	0,174
397,400	-2,034	0,174
397,450	-2,034	0,174
397,500	-2,033	0,174
397,550	-2,029	0,174
397,600	-2,022	0,174
397,650	-2,012	0,174
397,700	-2,006	0,174
397,750	-2,003	0,174
397,800	-1,997	0,174
397,850	-1,989	0,174
397,900	-1,984	0,174
397,950	-1,980	0,174
398,000	-1,977	0,174
398,050	-1,974	0,174
398,100	-1,964	0,174
398,150	-1,958	0,174
398,200	-1,957	0,174
398,250	-1,955	0,174
398,300	-1,951	0,174
398,350	-1,946	0,174
398,400	-1,937	0,174
398,450	-1,927	0,174
398,500	-1,913	0,174
398,550	-1,908	0,174
398,600	-1,908	0,174
398,650	-1,908	0,174
398,700	-1,908	0,174
398,750	-1,908	0,175
398,800	-1,908	0,174
398,850	-1,908	0,174
398,900	-1,908	0,174
398,950	-1,908	0,175
399,000	-1,908	0,174
399,050	-1,908	0,175
399,100	-1,908	0,174
399,150	-1,908	0,175
399,200	-1,908	0,174
399,250	-1,905	0,175
399,300	-1,897	0,174
399,350	-1,891	0,175
399,400	-1,889	0,174
399,450	-1,883	0,175
399,500	-1,881	0,174
399,550	-1,881	0,175
399,600	-1,881	0,174
399,650	-1,880	0,175
399,700	-1,874	0,174
399,750	-1,872	0,175
399,800	-1,869	0,174
399,850	-1,866	0,175
399,900	-1,859	0,175
399,950	-1,856	0,175
400,000	-1,851	0,175
400,050	-1,844	0,175
400,100	-1,838	0,175
400,150	-1,838	0,175
400,200	-1,834	0,175
400,250	-1,831	0,175
400,300	-1,824	0,174
400,350	-1,804	0,175
400,400	-1,767	0,174
400,450	-1,735	0,175
400,500	-1,722	0,175
400,550	-1,719	0,175
400,600	-1,719	0,174
400,650	-1,718	0,175
400,700	-1,708	0,174
400,750	-1,704	0,175
400,800	-1,703	0,175
400,850	-1,704	0,175
400,900	-1,704	0,175
400,950	-1,704	0,175
401,000	-1,704	0,175
401,050	-1,704	0,175
401,100	-1,704	0,175
401,150	-1,698	0,176
401,200	-1,687	0,174
401,250	-1,673	0,175
401,300	-1,665	0,175
401,350	-1,661	0,175
401,400	-1,647	0,175
401,450	-1,634	0,175
401,500	-1,628	0,174
401,550	-1,628	0,175
401,600	-1,628	0,174
401,650	-1,628	0,175
401,700	-1,628	0,175
401,750	-1,627	0,175
401,800	-1,624	0,175
401,850	-1,617	0,175
401,900	-1,610	0,175
401,950	-1,610	0,176
402,000	-1,610	0,175
402,050	-1,610	0,175
402,100	-1,610	0,175
402,150	-1,610	0,175
402,200	-1,610	0,174
402,250	-1,610	0,175
402,300	-1,610	0,175
402,350	-1,609	0,175
402,400	-1,596	0,175
402,450	-1,586	0,175
402,500	-1,560	0,175
402,550	-1,557	0,176
402,600	-1,547	0,175
402,650	-1,533	0,176
402,700	-1,510	0,174
402,750	-1,476	0,175
402,800	-1,455	0,174
402,850	-1,455	0,175
402,900	-1,455	0,175
402,950	-1,455	0,176
403,000	-1,455	0,175
403,050	-1,455	0,175
403,100	-1,455	0,175
403,150	-1,455	0,176
403,200	-1,455	0,175
403,250	-1,455	0,175
403,300	-1,455	0,175
403,350	-1,455	0,176
403,400	-1,455	0,175
403,450	-1,455	0,176
403,500	-1,455	0,175
403,550	-1,455	0,176
403,600	-1,451	0,175
403,650	-1,433	0,176
403,700	-1,425	0,175
403,750	-1,424	0,176
403,800	-1,414	0,175
403,850	-1,392	0,176
403,900	-1,369	0,175
403,950	-1,343	0,176
404,000	-1,331	0,175
404,050	-1,324	0,176
404,100	-1,317	0,175
404,150	-1,317	0,176
404,200	-1,313	0,175
404,250	-1,306	0,176
404,300	-1,297	0,175
404,350	-1,294	0,176
404,400	-1,290	0,175
404,450	-1,290	0,176
404,500	-1,289	0,175
404,550	-1,282	0,176
404,600	-1,279	0,175
404,650	-1,273	0,176
404,700	-1,268	0,175
404,750	-1,263	0,176
404,800	-1,256	0,175
404,850	-1,251	0,176
404,900	-1,249	0,175
404,950	-1,244	0,176
405,000	-1,241	0,175
405,050	-1,238	0,176
405,100	-1,235	0,175
405,150	-1,230	0,176
405,200	-1,224	0,175
405,250	-1,219	0,176
405,300	-1,210	0,175
405,350	-1,207	0,176
405,400	-1,204	0,175
405,450	-1,198	0,176
405,500	-1,197	0,175
405,550	-1,192	0,176
405,600	-1,184	0,175
405,650	-1,177	0,176
405,700	-1,173	0,175
405,750	-1,171	0,176
405,800	-1,166	0,175
405,850	-1,162	0,177
405,900	-1,158	0,175
405,950	-1,155	0,177
406,000	-1,154	0,176
406,050	-1,153	0,177
406,100	-1,154	0,175
406,150	-1,154	0,176
406,200	-1,153	0,175
406,250	-1,153	0,177
406,300	-1,153	0,176
406,350	-1,154	0,176
406,400	-1,152	0,176
406,450	-1,142	0,177
406,500	-1,117	0,175
406,550	-1,086	0,177
406,600	-1,067	0,176
406,650	-1,057	0,176
406,700	-1,055	0,176
406,750	-1,055	0,176
406,800	-1,055	0,175
406,850	-1,055	0,177
406,900	-1,055	0,176
406,950	-1,055	0,176
407,000	-1,055	0,176
407,050	-1,055	0,177
407,100	-1,055	0,176
407,150	-1,055	0,176
407,200	-1,055	0,176
407,250	-1,055	0,177
407,300	-1,055	0,176
407,350	-1,055	0,177
407,400	-1,055	0,176
407,450	-1,046	0,177
407,500	-1,028	0,176
407,550	-1,018	0,177
407,600	-1,008	0,176
407,650	-0,999	0,177
407,700	-0,986	0,176
407,750	-0,974	0,177
407,800	-0,970	0,176
407,850	-0,967	0,177
407,900	-0,963	0,176
407,950	-0,959	0,177
408,000	-0,957	0,176
408,050	-0,957	0,177
408,100	-0,955	0,176
408,150	-0,948	0,177
408,200	-0,940	0,176
408,250	-0,939	0,177
408,300	-0,933	0,176
408,350	-0,929	0,177
408,400	-0,925	0,176
408,450	-0,921	0,177
408,500	-0,913	0,176
408,550	-0,908	0,177
408,600	-0,905	0,176
408,650	-0,901	0,177
408,700	-0,900	0,176
408,750	-0,900	0,177
408,800	-0,900	0,176
408,850	-0,900	0,177
408,900	-0,900	0,176
408,950	-0,900	0,177
409,000	-0,900	0,176
409,050	-0,900	0,177
409,100	-0,900	0,176
409,150	-0,900	0,177
409,200	-0,899	0,176
409,250	-0,878	0,177
409,300	-0,859	0,176
409,350	-0,845	0,177
409,400	-0,833	0,177
409,450	-0,833	0,177
409,500	-0,832	0,176
409,550	-0,832	0,177
409,600	-0,819	0,176
409,650	-0,809	0,177
409,700	-0,806	0,176
409,750	-0,806	0,177
409,800	-0,806	0,176
409,850	-0,804	0,177
409,900	-0,802	0,176
409,950	-0,802	0,177
410,000	-0,793	0,176
410,050	-0,784	0,177
410,100	-0,779	0,177
410,150	-0,773	0,177
410,200	-0,770	0,176
410,250	-0,770	0,177
410,300	-0,763	0,176
410,350	-0,755	0,177
410,400	-0,748	0,176
410,450	-0,736	0,177
410,500	-0,723	0,177
410,550	-0,717	0,177
410,600	-0,707	0,176
410,650	-0,699	0,177
410,700	-0,692	0,176
410,750	-0,686	0,177
410,800	-0,682	0,176
410,850	-0,681	0,177
410,900	-0,673	0,176
410,950	-0,672	0,177
411,000	-0,672	0,177
411,050	-0,672	0,178
411,100	-0,672	0,176
411,150	-0,672	0,177
411,200	-0,672	0,177
411,250	-0,672	0,177
411,300	-0,672	0,176
411,350	-0,672	0,177
411,400	-0,671	0,177
411,450	-0,669	0,177
411,500	-0,669	0,177
411,550	-0,669	0,178
411,600	-0,669	0,176
411,650	-0,669	0,178
411,700	-0,659	0,177
411,750	-0,651	0,178
411,800	-0,650	0,177
411,850	-0,650	0,178
411,900	-0,650	0,177
411,950	-0,650	0,178
412,000	-0,650	0,177
412,050	-0,650	0,178
412,100	-0,650	0,177
412,150	-0,650	0,178
412,200	-0,650	0,177
412,250	-0,650	0,178
412,300	-0,650	0,177
412,350	-0,650	0,178
412,400	-0,650	0,177
412,450	-0,650	0,178
412,500	-0,643	0,177
412,550	-0,630	0,178
412,600	-0,624	0,177
412,650	-0,624	0,178
412,700	-0,624	0,177
412,750	-0,624	0,178
412,800	-0,624	0,177
412,850	-0,624	0,178
412,900	-0,624	0,177
412,950	-0,624	0,178
413,000	-0,624	0,177
413,050	-0,624	0,178
413,100	-0,624	0,177
413,150	-0,620	0,178
413,200	-0,613	0,177
413,250	-0,612	0,178
413,300	-0,607	0,177
413,350	-0,604	0,178
413,400	-0,596	0,177
413,450	-0,586	0,178
413,500	-0,576	0,177
413,550	-0,576	0,178
413,600	-0,575	0,177
413,650	-0,571	0,179
413,700	-0,554	0,177
413,750	-0,548	0,178
413,800	-0,535	0,177
413,850	-0,515	0,178
413,900	-0,502	0,177
413,950	-0,500	0,178
414,000	-0,500	0,178
414,050	-0,500	0,178
414,100	-0,500	0,177
414,150	-0,500	0,178
414,200	-0,500	0,177
414,250	-0,500	0,178
414,300	-0,500	0,177
414,350	-0,500	0,178
414,400	-0,500	0,178
414,450	-0,497	0,178
414,500	-0,495	0,177
414,550	-0,492	0,178
414,600	-0,484	0,177
414,650	-0,482	0,178
414,700	-0,482	0,177
414,750	-0,481	0,178
414,800	-0,481	0,178
414,850	-0,481	0,178
414,900	-0,481	0,178
414,950	-0,480	0,178
415,000	-0,480	0,178
415,050	-0,480	0,179
415,100	-0,480	0,178
415,150	-0,480	0,179
415,200	-0,480	0,178
415,250	-0,480	0,179
415,300	-0,480	0,178
415,350	-0,480	0,179
415,400	-0,480	0,178
415,450	-0,479	0,179
415,500	-0,480	0,178
415,550	-0,479	0,179
415,600	-0,479	0,178
415,650	-0,479	0,179
415,700	-0,479	0,178
415,750	-0,477	0,179
415,800	-0,472	0,178
415,850	-0,465	0,179
415,900	-0,460	0,178
415,950	-0,456	0,179
416,000	-0,448	0,178
416,050	-0,447	0,179
416,100	-0,446	0,178
416,150	-0,442	0,179
416,200	-0,442	0,178
416,250	-0,434	0,179
416,300	-0,433	0,178
416,350	-0,433	0,179
416,400	-0,425	0,178
416,450	-0,416	0,179
416,500	-0,415	0,178
416,550	-0,409	0,179
416,600	-0,402	0,178
416,650	-0,402	0,179
416,700	-0,400	0,178
416,750	-0,398	0,179
416,800	-0,398	0,178
416,850	-0,398	0,179
416,900	-0,397	0,178
416,950	-0,388	0,179
417,000	-0,384	0,178
417,050	-0,377	0,179
417,100	-0,376	0,178
417,150	-0,376	0,179
417,200	-0,376	0,179
417,250	-0,376	0,179
417,300	-0,374	0,179
417,350	-0,364	0,179
417,400	-0,362	0,178
417,450	-0,362	0,179
417,500	-0,362	0,178
417,550	-0,358	0,179
417,600	-0,351	0,178
417,650	-0,344	0,179
417,700	-0,333	0,179
417,750	-0,331	0,179
417,800	-0,328	0,178
417,850	-0,313	0,179
417,900	-0,308	0,179
417,950	-0,306	0,179
418,000	-0,305	0,179
418,050	-0,305	0,180
418,100	-0,305	0,179
418,150	-0,303	0,179
418,200	-0,285	0,178
418,250	-0,273	0,179
418,300	-0,270	0,179
418,350	-0,270	0,179
418,400	-0,264	0,179
418,450	-0,250	0,179
418,500	-0,247	0,179
418,550	-0,235	0,179
418,600	-0,221	0,179
418,650	-0,217	0,179
418,700	-0,203	0,179
418,750	-0,186	0,179
418,800	-0,179	0,179
418,850	-0,170	0,179
418,900	-0,168	0,178
418,950	-0,169	0,179
419,000	-0,169	0,178
419,050	-0,168	0,179
419,100	-0,168	0,179
419,150	-0,169	0,179
419,200	-0,168	0,179
419,250	-0,168	0,179
419,300	-0,168	0,179
419,350	-0,168	0,179
419,400	-0,168	0,179
419,450	-0,164	0,179
419,500	-0,164	0,179
419,550	-0,164	0,179
419,600	-0,164	0,179
419,650	-0,153	0,179
419,700	-0,151	0,179
419,750	-0,151	0,179
419,800	-0,151	0,179
419,850	-0,151	0,179
419,900	-0,151	0,179
419,950	-0,151	0,179
420,000	-0,151	0,179
420,050	-0,151	0,179
420,100	-0,147	0,179
420,150	-0,142	0,179
420,200	-0,142	0,179
420,250	-0,142	0,179
420,300	-0,142	0,179
420,350	-0,142	0,179
420,400	-0,142	0,179
420,450	-0,142	0,179
420,500	-0,142	0,180
420,550	-0,134	0,180
420,600	-0,132	0,179
420,650	-0,130	0,179
420,700	-0,133	0,179
420,750	-0,133	0,180
420,800	-0,133	0,179
420,850	-0,132	0,180
420,900	-0,131	0,179
420,950	-0,131	0,179
421,000	-0,131	0,180
421,050	-0,131	0,180
421,100	-0,115	0,179
421,150	-0,074	0,179
421,200	-0,048	0,180
421,250	-0,045	0,180
421,300	-0,045	0,180
421,350	-0,041	0,180
421,400	-0,040	0,179
421,450	-0,040	0,180
421,500	-0,040	0,179
421,550	-0,040	0,180
421,600	-0,040	0,180
421,650	-0,040	0,180
421,700	-0,040	0,179
421,750	-0,034	0,179
421,800	-0,023	0,180
421,850	-0,011	0,180
421,900	-0,009	0,180
421,950	-0,009	0,180
422,000	-0,010	0,180
422,050	-0,010	0,180
422,100	-0,009	0,180
422,150	-0,010	0,180
422,200	-0,009	0,180
422,250	-0,009	0,180
422,300	-0,009	0,180
422,350	-0,009	0,180
422,400	-0,009	0,180
422,450	-0,010	0,180
422,500	-0,007	0,180
422,550	-0,007	0,180
422,600	-0,007	0,180
422,650	-0,009	0,180
422,700	-0,010	0,180
422,750	-0,009	0,180
422,800	-0,007	0,180
422,850	-0,008	0,180
422,900	-0,009	0,180
422,950	-0,008	0,180
423,000	-0,006	0,180
423,050	-0,006	0,180
423,100	-0,006	0,180
423,150	-0,006	0,180
423,200	-0,006	0,180
423,250	-0,006	0,180
423,300	-0,006	0,180
423,350	-0,005	0,180
423,400	-0,005	0,180
423,450	-0,005	0,180
423,500	-0,005	0,181
423,550	-0,005	0,180
423,600	-0,006	0,180
423,650	-0,006	0,180
423,700	-0,006	0,180
423,750	-0,005	0,181
423,800	-0,006	0,180
423,850	-0,005	0,181
423,900	-0,005	0,181
423,950	-0,006	0,180
424,000	-0,005	0,181
424,050	-0,005	0,180
424,100	-0,006	0,181
424,150	-0,005	0,181
424,200	-0,005	0,181
424,250	-0,006	0,180
424,300	-0,005	0,181
424,350	-0,006	0,180
424,400	-0,005	0,181
424,450	-0,005	0,181
424,500	-0,005	0,181
424,550	-0,005	0,180
424,600	-0,005	0,181
424,650	-0,005	0,181
424,700	-0,005	0,181
424,750	-0,006	0,180
424,800	-0,005	0,181
424,850	-0,005	0,181
